Wavelength,IntensityFactor
880.492,1652.05
880.446,1660.75
880.4,1661.55
880.355,1646.05
880.309,1656.65
880.263,1675.95
880.217,1675.4
880.172,1660.4
880.126,1661.4
880.08,1674.3
880.034,1657.7
879.989,1653.05
879.943,1655.05
879.897,1680.55
879.852,1751.3
879.806,1650.7
879.76,1667.55
879.714,1660.45
879.669,1656.9
879.623,1669.5
879.577,1652.3
879.531,1658.9
879.485,1686
879.44,1664.8
879.394,1662.2
879.348,1655.3
879.302,1668.7
879.257,1665.7
879.211,1659.3
879.165,1667.85
879.119,1652.4
879.073,1661.15
879.028,1651.2
878.982,1650.3
878.936,1661.95
878.89,1644
878.844,1654.4
878.799,1667.6
878.753,1665.8
878.707,1654.1
878.661,1657.75
878.615,1663.85
878.569,1664.8
878.524,1662.55
878.478,1674.85
878.432,1686.4
878.386,1672.15
878.34,1671
878.294,1668.4
878.248,1658.8
878.203,1634.95
878.157,1674.65
878.111,1653.1
878.065,1663.2
878.019,1675.55
877.973,1669.15
877.927,1657.95
877.881,1659.7
877.836,1664.85
877.79,1674.2
877.744,1653.05
877.698,1670.25
877.652,1662
877.606,1659.25
877.56,1656.9
877.514,1746.5
877.468,1642.7
877.422,1661.8
877.376,1656.5
877.331,1664.75
877.285,1659.65
877.239,1673.35
877.193,1661.65
877.147,1662.65
877.101,1679.9
877.055,1659.75
877.009,1677.6
876.963,1689.45
876.917,1660.6
876.871,1673.55
876.825,1673.5
876.779,1662.75
876.733,1681.4
876.687,1677.05
876.641,1658.7
876.595,1672.1
876.549,1659.05
876.503,1656
876.457,1649.25
876.411,1646.9
876.365,1656.1
876.319,1645.3
876.273,1678.65
876.227,1667.9
876.181,1655.4
876.135,1679.4
876.089,1644.85
876.043,1654.5
875.997,1680.7
875.951,1668.95
875.905,1641.15
875.859,1652.65
875.813,1662
875.767,1674.55
875.721,1660.6
875.675,1650.4
875.629,1662
875.583,1672.8
875.537,1669.2
875.491,1659.8
875.445,1672.5
875.399,1689.2
875.352,1656.3
875.306,1633.05
875.26,1681.75
875.214,1666.4
875.168,1744.7
875.122,1654.5
875.076,1648.35
875.03,1657
874.984,1669.4
874.938,1645.55
874.892,1649.9
874.845,1683.75
874.799,1654.15
874.753,1655.95
874.707,1667.2
874.661,1672.3
874.615,1682.45
874.569,1660.15
874.523,1655.2
874.476,1664.4
874.43,1662.95
874.384,1656.45
874.338,1667.65
874.292,1663.6
874.246,1665.2
874.2,1672.65
874.153,1650.4
874.107,1666.05
874.061,1642.65
874.015,1664.4
873.969,1666.8
873.923,1655.7
873.876,1661.6
873.83,1667.65
873.784,1662.2
873.738,1670.8
873.692,1670.85
873.645,1693.85
873.599,1642.9
873.553,1662.7
873.507,1661.6
873.461,1676.7
873.414,1676.2
873.368,1658.25
873.322,1658.05
873.276,1674
873.23,1641.35
873.183,1653.05
873.137,1652.2
873.091,1680.6
873.045,1667.8
872.998,1675.85
872.952,1655.5
872.906,1658.1
872.86,1688.9
872.813,1765.5
872.767,1652.55
872.721,1653.75
872.675,1652.45
872.628,1651.9
872.582,1662.75
872.536,1668.95
872.489,1663.35
872.443,1668.85
872.397,1660.8
872.351,1667.75
872.304,1679.85
872.258,1670.3
872.212,1675.1
872.165,1674.55
872.119,1673.45
872.073,1675
872.026,1662.2
871.98,1640.65
871.934,1638.85
871.888,1677.15
871.841,1674.4
871.795,1662.45
871.749,1650.05
871.702,1648.05
871.656,1656.7
871.61,1682.25
871.563,1653.55
871.517,1662.25
871.47,1656.6
871.424,1667.4
871.378,1655.55
871.331,1675.15
871.285,1653.05
871.239,1666.6
871.192,1651.6
871.146,1669.35
871.099,1648.35
871.053,1667
871.007,1648.4
870.96,1658.35
870.914,1665.45
870.868,1676.3
870.821,1657
870.775,1659.25
870.728,1643
870.682,1667.65
870.636,1658.65
870.589,1677.1
870.543,1682.25
870.496,1674.25
870.45,1776.15
870.403,1660.25
870.357,1623.8
870.311,1658.7
870.264,1640.15
870.218,1680.4
870.171,1638.15
870.125,1640.9
870.078,1649.2
870.032,1679.15
869.985,1670.55
869.939,1662.8
869.892,1649.7
869.846,1683.4
869.799,1666.85
869.753,1676.25
869.707,1660.5
869.66,1672.85
869.614,1676.15
869.567,1671.7
869.521,1658.6
869.474,1656.05
869.428,1662.25
869.381,1648.1
869.335,1640.15
869.288,1667.7
869.242,1645.1
869.195,1650.65
869.148,1660.9
869.102,1683.15
869.055,1657.95
869.009,1665.05
868.962,1653.45
868.916,1684.25
868.869,1670.4
868.823,1666.35
868.776,1679.6
868.73,1659.75
868.683,1652.65
868.637,1659.2
868.59,1662.55
868.543,1635.95
868.497,1656.35
868.45,1654.55
868.404,1643.95
868.357,1656.95
868.311,1645.55
868.264,1650.05
868.217,1676.1
868.171,1650.1
868.124,1666.2
868.078,1758.65
868.031,1652.95
867.984,1679.55
867.938,1671.15
867.891,1664.35
867.845,1664.3
867.798,1661.95
867.751,1662.1
867.705,1664.85
867.658,1657.35
867.611,1667.6
867.565,1652
867.518,1663.85
867.471,1649.4
867.425,1672.85
867.378,1671.8
867.332,1667.45
867.285,1665.05
867.238,1672.8
867.192,1680.35
867.145,1671.15
867.098,1669.75
867.052,1677.15
867.005,1675.1
866.958,1664.45
866.911,1673.35
866.865,1674.25
866.818,1646.85
866.771,1681.9
866.725,1659.65
866.678,1673.6
866.631,1669.2
866.585,1673.4
866.538,1655.9
866.491,1657.8
866.444,1636.55
866.398,1666.8
866.351,1657.8
866.304,1649.6
866.258,1652.25
866.211,1662.1
866.164,1652.15
866.117,1661.8
866.071,1666.1
866.024,1652.65
865.977,1682.45
865.93,1670.9
865.884,1667.75
865.837,1661.05
865.79,1661.65
865.743,1670.35
865.697,1700.4
865.65,1663.8
865.603,1663.2
865.556,1673.05
865.509,1665.8
865.463,1659.95
865.416,1659.4
865.369,1651.65
865.322,1673.75
865.276,1669.95
865.229,1660.8
865.182,1667.8
865.135,1658.7
865.088,1681.85
865.041,1653.25
864.995,1658.45
864.948,1672.05
864.901,1658
864.854,1660.3
864.807,1653.1
864.761,1654.35
864.714,1658.9
864.667,1669.3
864.62,1654.7
864.573,1658.7
864.526,1660.4
864.479,1658.6
864.433,1660.9
864.386,1664.7
864.339,1645.1
864.292,1661.3
864.245,1676.7
864.198,1663.15
864.151,1664.2
864.104,1655.75
864.058,1682.75
864.011,1654.75
863.964,1663.05
863.917,1669.85
863.87,1681.05
863.823,1672.2
863.776,1671.65
863.729,1658.7
863.682,1675.35
863.635,1635.7
863.589,1664.2
863.542,1653.15
863.495,1662.85
863.448,1657.1
863.401,1667.45
863.354,1681.4
863.307,1684.05
863.26,1687.95
863.213,1667.35
863.166,1652.6
863.119,1669.35
863.072,1677.95
863.025,1656.8
862.978,1646.15
862.931,1684.55
862.884,1654.3
862.837,1666.1
862.79,1672.6
862.743,1668.75
862.696,1665.65
862.649,1675.8
862.602,1649.55
862.555,1659.15
862.508,1651.15
862.461,1649.05
862.414,1666
862.367,1637.7
862.32,1663.45
862.273,1669.05
862.226,1651.5
862.179,1663.65
862.132,1639.6
862.085,1654.95
862.038,1656.85
861.991,1658.85
861.944,1659.3
861.897,1682.25
861.85,1666.15
861.803,1656
861.756,1668.35
861.709,1655.3
861.662,1656.85
861.615,1666.1
861.568,1659.85
861.521,1665.7
861.474,1643.4
861.427,1647.2
861.38,1659.5
861.332,1664.4
861.285,1670.7
861.238,1685.5
861.191,1654.2
861.144,1676.8
861.097,1667.25
861.05,1673.25
861.003,1669.9
860.956,1672.3
860.909,1713.2
860.861,1669.15
860.814,1662.3
860.767,1647.25
860.72,1636.85
860.673,1679.1
860.626,1661.25
860.579,1643.65
860.532,1653.05
860.484,1657.85
860.437,1669.85
860.39,1654.8
860.343,1683
860.296,1662.1
860.249,1655.9
860.202,1658.8
860.154,1649.7
860.107,1663
860.06,1653
860.013,1669.7
859.966,1653.9
859.919,1647.8
859.871,1671.75
859.824,1662.4
859.777,1658.9
859.73,1670.45
859.683,1651.05
859.635,1673.15
859.588,1658.55
859.541,1659.8
859.494,1658.4
859.447,1686.05
859.399,1667.05
859.352,1674.6
859.305,1667.1
859.258,1665.85
859.21,1656.55
859.163,1653.15
859.116,1674.3
859.069,1659.85
859.021,1660.45
858.974,1658
858.927,1657.6
858.88,1647.65
858.832,1660.9
858.785,1662.55
858.738,1655.45
858.691,1663.7
858.643,1655.4
858.596,1674
858.549,1664
858.502,1722.3
858.454,1671.15
858.407,1644.15
858.36,1662.55
858.312,1644.8
858.265,1655.75
858.218,1648.75
858.171,1639.2
858.123,1646.25
858.076,1673.8
858.029,1677.15
857.981,1654.75
857.934,1686.35
857.887,1664.7
857.839,1643.05
857.792,1680.95
857.745,1672.85
857.697,1671.55
857.65,1667.75
857.603,1655.1
857.555,1656.4
857.508,1658.8
857.461,1652.3
857.413,1653.9
857.366,1648.3
857.319,1662.65
857.271,1657.35
857.224,1647.1
857.176,1666.25
857.129,1670.75
857.082,1656
857.034,1681.2
856.987,1673.35
856.94,1678.5
856.892,1679.95
856.845,1670.6
856.797,1673.1
856.75,1656.55
856.703,1659.2
856.655,1645.05
856.608,1670.3
856.56,1638.95
856.513,1648.95
856.465,1661.55
856.418,1667.65
856.371,1673.3
856.323,1659.65
856.276,1664.65
856.228,1678.6
856.181,1676.9
856.133,1696.2
856.086,1705.7
856.039,1647.5
855.991,1664.75
855.944,1654.3
855.896,1674.65
855.849,1655.95
855.801,1661.2
855.754,1651
855.706,1670.3
855.659,1667.6
855.611,1668.05
855.564,1658.3
855.516,1665.35
855.469,1680.4
855.421,1675.4
855.374,1676.4
855.326,1668.4
855.279,1657.25
855.231,1631.5
855.184,1660.4
855.136,1656.65
855.089,1661.2
855.041,1650.1
854.994,1642.65
854.946,1672.05
854.899,1640.85
854.851,1666.95
854.804,1664
854.756,1667.95
854.709,1668.55
854.661,1648.7
854.613,1662.6
854.566,1670.3
854.518,1665.6
854.471,1675.8
854.423,1658.75
854.376,1674.35
854.328,1642.95
854.28,1665.9
854.233,1655.05
854.185,1658.55
854.138,1666.85
854.09,1671.5
854.043,1676.15
853.995,1662.95
853.947,1668
853.9,1651.35
853.852,1656.8
853.805,1671.95
853.757,1676.2
853.709,1690.8
853.662,1708.2
853.614,1651.95
853.566,1668.3
853.519,1649.45
853.471,1652
853.424,1674.3
853.376,1667.05
853.328,1664.4
853.281,1666.65
853.233,1686.6
853.185,1664.6
853.138,1689.65
853.09,1680.4
853.042,1661.85
852.995,1688.15
852.947,1669.95
852.899,1672.9
852.852,1664.3
852.804,1662.15
852.756,1647.55
852.709,1666.45
852.661,1668.7
852.613,1657.15
852.566,1669.15
852.518,1652.7
852.47,1670.55
852.422,1647.7
852.375,1657.6
852.327,1659.95
852.279,1665.75
852.232,1657.55
852.184,1669.65
852.136,1662.35
852.088,1651.15
852.041,1644.3
851.993,1660.65
851.945,1661.2
851.897,1655.4
851.85,1645.2
851.802,1664.35
851.754,1663.4
851.706,1649.9
851.659,1656.1
851.611,1678.8
851.563,1664.3
851.515,1688.95
851.468,1653.15
851.42,1680.35
851.372,1669.45
851.324,1662.25
851.277,1663.85
851.229,1691.05
851.181,1652
851.133,1652.8
851.085,1654.75
851.038,1650.65
850.99,1647.5
850.942,1672.5
850.894,1652.2
850.846,1656.95
850.799,1669.5
850.751,1652.8
850.703,1685.95
850.655,1677.3
850.607,1667.4
850.559,1659.15
850.512,1667.3
850.464,1643.2
850.416,1665.25
850.368,1659.15
850.32,1676.15
850.272,1655.85
850.224,1677.2
850.177,1645.85
850.129,1658.85
850.081,1649.3
850.033,1654.45
849.985,1670.15
849.937,1660.55
849.889,1676.55
849.842,1676.6
849.794,1654.35
849.746,1655.1
849.698,1684.9
849.65,1676.75
849.602,1658.9
849.554,1669.95
849.506,1664.95
849.458,1676.25
849.41,1650.65
849.363,1660.25
849.315,1650.2
849.267,1661.2
849.219,1668.55
849.171,1644.8
849.123,1645.75
849.075,1676.15
849.027,1676.8
848.979,1656.1
848.931,1663.75
848.883,1692.7
848.835,1690.85
848.787,1649.95
848.739,1676.35
848.691,1640.8
848.643,1651.4
848.595,1650.35
848.547,1653.7
848.499,1652.35
848.452,1647.6
848.404,1669.4
848.356,1651.35
848.308,1662.65
848.26,1666.65
848.212,1677.25
848.164,1687.35
848.116,1666.05
848.068,1685.95
848.02,1675.75
847.972,1671.95
847.924,1678.9
847.876,1666.95
847.827,1660.65
847.779,1649.35
847.731,1661.15
847.683,1646.5
847.635,1652.75
847.587,1642.9
847.539,1669
847.491,1663.9
847.443,1655.85
847.395,1675.95
847.347,1688.95
847.299,1650.5
847.251,1643.4
847.203,1674.85
847.155,1651.8
847.107,1660.35
847.059,1655.1
847.011,1653.5
846.963,1664.05
846.914,1643.35
846.866,1672.35
846.818,1673.5
846.77,1663.8
846.722,1655
846.674,1652.15
846.626,1657.5
846.578,1659.15
846.53,1669.95
846.482,1664
846.433,1687.7
846.385,1670.95
846.337,1658.8
846.289,1654.4
846.241,1645.7
846.193,1651.75
846.145,1647.4
846.097,1655.35
846.048,1674.6
846,1657.5
845.952,1663.05
845.904,1668.8
845.856,1649.3
845.808,1678.25
845.759,1657.8
845.711,1681.35
845.663,1661.9
845.615,1664.35
845.567,1663.55
845.519,1683.65
845.47,1660.65
845.422,1662
845.374,1655.3
845.326,1665.25
845.278,1663.15
845.229,1665.25
845.181,1660.4
845.133,1665.4
845.085,1653.65
845.037,1672.9
844.988,1663.05
844.94,1677.65
844.892,1668
844.844,1661.8
844.795,1651.3
844.747,1667.45
844.699,1695.6
844.651,1644.55
844.603,1656.55
844.554,1655.15
844.506,1650.95
844.458,1647.25
844.41,1664.15
844.361,1671.55
844.313,1657.75
844.265,1656.55
844.216,1670.85
844.168,1672.85
844.12,1662
844.072,1678.85
844.023,1679.55
843.975,1661.55
843.927,1664.35
843.879,1663.5
843.83,1639.2
843.782,1664.1
843.734,1648.5
843.685,1664.45
843.637,1656.6
843.589,1683.3
843.54,1663.75
843.492,1652.7
843.444,1658.35
843.395,1684.55
843.347,1668.35
843.299,1685.3
843.25,1684.8
843.202,1654.65
843.154,1674.8
843.105,1688
843.057,1658.3
843.009,1658.9
842.96,1663.75
842.912,1662.8
842.864,1653.65
842.815,1659.4
842.767,1638.1
842.719,1650.2
842.67,1648.35
842.622,1673.6
842.573,1653.95
842.525,1678.25
842.477,1667.65
842.428,1670.85
842.38,1666.35
842.331,1670
842.283,1672.1
842.235,1660.1
842.186,1664.55
842.138,1661.15
842.089,1676.4
842.041,1656.85
841.993,1637.4
841.944,1666.55
841.896,1659.05
841.847,1680.45
841.799,1677.7
841.75,1676.45
841.702,1669.55
841.654,1675.15
841.605,1648.35
841.557,1657.4
841.508,1657.4
841.46,1659.15
841.411,1655.85
841.363,1656.7
841.314,1648.8
841.266,1678.2
841.217,1636.45
841.169,1675.75
841.12,1663.05
841.072,1670.5
841.023,1681.35
840.975,1678.3
840.927,1678.3
840.878,1671.35
840.83,1662.65
840.781,1681.2
840.733,1673
840.684,1660
840.635,1671.5
840.587,1659.65
840.538,1654.5
840.49,1643.45
840.441,1661.75
840.393,1651.3
840.344,1668.9
840.296,1656.35
840.247,1669.8
840.199,1659.45
840.15,1655.65
840.102,1657.65
840.053,1663.55
840.005,1695.1
839.956,1656.35
839.907,1661.9
839.859,1670.7
839.81,1686.45
839.762,1664.15
839.713,1678.75
839.665,1649.65
839.616,1650.9
839.567,1667.9
839.519,1644.4
839.47,1651.2
839.422,1670.55
839.373,1653.65
839.324,1656.65
839.276,1652.35
839.227,1674.6
839.179,1685.25
839.13,1677.8
839.081,1660.6
839.033,1679.75
838.984,1675.95
838.935,1671.65
838.887,1644.35
838.838,1662.1
838.79,1665.8
838.741,1669.1
838.692,1676.05
838.644,1678.35
838.595,1645.15
838.546,1667.35
838.498,1654.15
838.449,1670.35
838.4,1681.65
838.352,1674.2
838.303,1685.05
838.254,1671
838.206,1671.05
838.157,1676.85
838.108,1660.75
838.06,1669.4
838.011,1661.1
837.962,1652.1
837.914,1657.35
837.865,1665.45
837.816,1629
837.767,1647.85
837.719,1668.15
837.67,1669.3
837.621,1656.15
837.573,1664.45
837.524,1697.55
837.475,1667.25
837.426,1655
837.378,1660.95
837.329,1668.1
837.28,1676.3
837.231,1661.75
837.183,1661.75
837.134,1667.7
837.085,1662.8
837.036,1657
836.988,1665.95
836.939,1682.55
836.89,1661.95
836.841,1665.65
836.793,1666.25
836.744,1664.3
836.695,1658.3
836.646,1668.25
836.598,1652.9
836.549,1669.2
836.5,1693.25
836.451,1639
836.402,1649.7
836.354,1649.7
836.305,1668.75
836.256,1659.6
836.207,1670.6
836.158,1671.95
836.11,1660.3
836.061,1662.7
836.012,1687.4
835.963,1659
835.914,1673.5
835.865,1682.5
835.817,1669.3
835.768,1677.65
835.719,1676.1
835.67,1643.4
835.621,1667.15
835.572,1655.4
835.523,1658.15
835.475,1648
835.426,1658.95
835.377,1664.2
835.328,1663.5
835.279,1640.7
835.23,1654.9
835.181,1660.1
835.133,1672.65
835.084,1653.35
835.035,1691.1
834.986,1641.7
834.937,1669.8
834.888,1668.1
834.839,1664.75
834.79,1658.55
834.741,1656.75
834.692,1679.8
834.643,1661.55
834.595,1653.85
834.546,1661.85
834.497,1660.5
834.448,1663.2
834.399,1677.95
834.35,1679.8
834.301,1670.4
834.252,1667.55
834.203,1670.25
834.154,1643.55
834.105,1656.1
834.056,1674.1
834.007,1661.6
833.958,1636.2
833.909,1656.05
833.86,1648
833.811,1659.1
833.762,1674.9
833.713,1664.55
833.665,1652
833.616,1666.5
833.567,1677.55
833.518,1675.4
833.469,1668.45
833.42,1679
833.371,1666.4
833.322,1654.7
833.273,1668.2
833.224,1670.6
833.175,1653.9
833.126,1659.6
833.076,1654.2
833.027,1663.3
832.978,1670.95
832.929,1665.95
832.88,1650.65
832.831,1670.25
832.782,1660.75
832.733,1668.75
832.684,1683.65
832.635,1671.55
832.586,1661.55
832.537,1671.5
832.488,1666.25
832.439,1666.8
832.39,1663.3
832.341,1653.5
832.292,1665.05
832.243,1669.8
832.194,1643.6
832.144,1652.75
832.095,1649.3
832.046,1661.7
831.997,1648.3
831.948,1644.65
831.899,1659.25
831.85,1662.3
831.801,1677.9
831.752,1688.55
831.703,1654.5
831.653,1684.3
831.604,1680.05
831.555,1687.6
831.506,1650.8
831.457,1663.85
831.408,1648.1
831.359,1649.75
831.31,1666.35
831.26,1657.75
831.211,1674.85
831.162,1681
831.113,1663.9
831.064,1667.55
831.015,1667.15
830.966,1674.9
830.916,1680.8
830.867,1660.4
830.818,1676.05
830.769,1677.5
830.72,1677.6
830.671,1665.25
830.621,1660.1
830.572,1651.05
830.523,1654.85
830.474,1649.05
830.425,1637.45
830.375,1645.75
830.326,1662.7
830.277,1649.3
830.228,1659.6
830.179,1667.6
830.129,1677.9
830.08,1671.4
830.031,1678.15
829.982,1681.35
829.932,1673.1
829.883,1658.25
829.834,1684.95
829.785,1667.2
829.735,1655.55
829.686,1667.9
829.637,1658.65
829.588,1646.3
829.538,1661.2
829.489,1629.85
829.44,1665.45
829.391,1661.65
829.341,1663.75
829.292,1684.45
829.243,1665.35
829.194,1662.25
829.144,1671.4
829.095,1682.95
829.046,1675.75
828.996,1662.5
828.947,1634.15
828.898,1664.5
828.849,1669
828.799,1660.85
828.75,1662.75
828.701,1648.35
828.651,1685.4
828.602,1669.45
828.553,1675.7
828.503,1666.1
828.454,1684.15
828.405,1666.9
828.355,1657.1
828.306,1669.15
828.257,1669.5
828.207,1651.1
828.158,1676.65
828.109,1672.25
828.059,1675.65
828.01,1662.25
827.961,1677.5
827.911,1652.65
827.862,1667.55
827.812,1675.15
827.763,1655.25
827.714,1677.8
827.664,1665.75
827.615,1653.55
827.566,1671.1
827.516,1662.5
827.467,1676.35
827.417,1660.65
827.368,1650.65
827.319,1686.35
827.269,1672.15
827.22,1669.75
827.17,1665.95
827.121,1670.05
827.072,1669.05
827.022,1669.65
826.973,1666.15
826.923,1679.6
826.874,1662.6
826.824,1666.9
826.775,1669
826.726,1641.8
826.676,1662.05
826.627,1654.05
826.577,1678.55
826.528,1654.35
826.478,1642.2
826.429,1676.75
826.379,1668.9
826.33,1642
826.28,1654
826.231,1650.75
826.181,1670.15
826.132,1647.45
826.083,1677.5
826.033,1668
825.984,1664.1
825.934,1672.45
825.885,1673.35
825.835,1673.75
825.786,1672.35
825.736,1678
825.687,1672.95
825.637,1680.15
825.588,1666.65
825.538,1663.5
825.488,1644
825.439,1651.8
825.389,1659.55
825.34,1664.55
825.29,1668.5
825.241,1670.4
825.191,1666.1
825.142,1654.9
825.092,1675.85
825.043,1662.95
824.993,1660.05
824.944,1687.4
824.894,1656.85
824.844,1666.85
824.795,1680.85
824.745,1653.75
824.696,1673.6
824.646,1652.25
824.597,1664.35
824.547,1644.85
824.497,1656.8
824.448,1672.65
824.398,1652.6
824.349,1671.3
824.299,1641.6
824.249,1648.05
824.2,1660.15
824.15,1660.4
824.101,1677.65
824.051,1676.9
824.001,1675.75
823.952,1707.6
823.902,1686.9
823.852,1664.8
823.803,1666.65
823.753,1651.8
823.704,1652.65
823.654,1659.15
823.604,1672.7
823.555,1649.45
823.505,1665.85
823.455,1657.35
823.406,1643.05
823.356,1653.15
823.306,1664
823.257,1672.55
823.207,1652.65
823.157,1674.5
823.108,1674.55
823.058,1659.35
823.008,1672.3
822.959,1671.05
822.909,1637.15
822.859,1662.8
822.809,1650.5
822.76,1656.7
822.71,1663.2
822.66,1661.75
822.611,1653.4
822.561,1653.35
822.511,1664.4
822.461,1664.05
822.412,1663.7
822.362,1662.05
822.312,1652.6
822.263,1662.2
822.213,1650.4
822.163,1653
822.113,1675.15
822.064,1674.15
822.014,1670.25
821.964,1663.25
821.914,1646.3
821.865,1651.75
821.815,1670.6
821.765,1667.3
821.715,1673.85
821.666,1656.35
821.616,1656.1
821.566,1649.35
821.516,1663
821.466,1667.8
821.417,1668.1
821.367,1630.65
821.317,1664.3
821.267,1641.4
821.217,1648.4
821.168,1662.45
821.118,1664.4
821.068,1645.9
821.018,1681.65
820.968,1662.1
820.919,1663.7
820.869,1666.75
820.819,1678.05
820.769,1683.05
820.719,1674.7
820.669,1685.75
820.62,1669.2
820.57,1662.25
820.52,1668.45
820.47,1677.95
820.42,1648.2
820.37,1657.6
820.32,1648.6
820.271,1650.7
820.221,1652.85
820.171,1666.55
820.121,1665.55
820.071,1666.5
820.021,1672
819.971,1664.3
819.921,1671.3
819.872,1653.7
819.822,1660.8
819.772,1655.9
819.722,1661.45
819.672,1646.05
819.622,1655.45
819.572,1654.65
819.522,1660.45
819.472,1663.25
819.422,1662.8
819.373,1678.7
819.323,1645.2
819.273,1666.05
819.223,1643.3
819.173,1680.15
819.123,1683.6
819.073,1657.9
819.023,1667.85
818.973,1670.2
818.923,1678.5
818.873,1651.85
818.823,1662.55
818.773,1662.2
818.723,1652.15
818.673,1658.5
818.623,1633.85
818.573,1660.55
818.523,1658.6
818.473,1675.8
818.423,1661.85
818.373,1664.15
818.323,1679.05
818.273,1672.1
818.223,1678.7
818.173,1666.85
818.123,1661.9
818.073,1645.1
818.023,1662.3
817.973,1654.65
817.923,1661.2
817.873,1661.4
817.823,1658.8
817.773,1660.6
817.723,1643
817.673,1644.85
817.623,1655.4
817.573,1678
817.523,1661.85
817.473,1661.3
817.423,1677.25
817.373,1669.5
817.323,1666.75
817.273,1685.35
817.223,1684
817.173,1674
817.123,1663.4
817.073,1665.6
817.023,1648.45
816.972,1651.05
816.922,1650.3
816.872,1660.25
816.822,1650.65
816.772,1651.1
816.722,1662.85
816.672,1657.6
816.622,1659.55
816.572,1674.85
816.522,1689.95
816.472,1665.85
816.421,1654.15
816.371,1667.55
816.321,1655.65
816.271,1616.4
816.221,1652.3
816.171,1641.2
816.121,1638.6
816.071,1645.45
816.02,1648.95
815.97,1667.6
815.92,1647.3
815.87,1654.5
815.82,1661.9
815.77,1668
815.72,1671.65
815.669,1677.45
815.619,1671.25
815.569,1666
815.519,1667.65
815.469,1657.5
815.419,1663.5
815.368,1657.65
815.318,1648
815.268,1654.05
815.218,1661.2
815.168,1648.85
815.117,1657.85
815.067,1646.95
815.017,1643.05
814.967,1650.35
814.917,1656.35
814.866,1666.8
814.816,1661.55
814.766,1649.15
814.716,1674.2
814.665,1672.35
814.615,1688.6
814.565,1649.95
814.515,1678.15
814.465,1651.8
814.414,1664.9
814.364,1650.7
814.314,1654.25
814.264,1647.6
814.213,1648.85
814.163,1637.15
814.113,1663.7
814.063,1665.3
814.012,1677.85
813.962,1675.45
813.912,1675.7
813.861,1662.2
813.811,1681.15
813.761,1647
813.711,1661.75
813.66,1656.25
813.61,1664
813.56,1650.7
813.509,1645.55
813.459,1654.1
813.409,1639.55
813.358,1659.6
813.308,1660.1
813.258,1645.7
813.208,1674
813.157,1665.2
813.107,1675.9
813.057,1676.95
813.006,1647.05
812.956,1681.35
812.906,1676.55
812.855,1651.6
812.805,1651.6
812.755,1682.25
812.704,1645.25
812.654,1660.2
812.603,1663.2
812.553,1662
812.503,1657.9
812.452,1660.05
812.402,1643.95
812.352,1658.85
812.301,1655.35
812.251,1653.85
812.2,1663.85
812.15,1663.3
812.1,1683
812.049,1672.15
811.999,1668.15
811.949,1677.65
811.898,1646.4
811.848,1683.95
811.797,1674.35
811.747,1659.45
811.696,1663.05
811.646,1645.5
811.596,1664.05
811.545,1667.65
811.495,1672.1
811.444,1650.2
811.394,1663.45
811.343,1655.75
811.293,1673.95
811.243,1663.4
811.192,1660.65
811.142,1664
811.091,1643.75
811.041,1651
810.99,1653.4
810.94,1665.95
810.889,1667.1
810.839,1658.1
810.788,1647.7
810.738,1679.45
810.688,1657.45
810.637,1678.45
810.587,1674.7
810.536,1679.65
810.486,1660.1
810.435,1649.8
810.385,1652.4
810.334,1661.05
810.284,1663.25
810.233,1656.4
810.183,1664.4
810.132,1651.65
810.081,1672.8
810.031,1671.25
809.98,1657.85
809.93,1661.55
809.879,1663.5
809.829,1668.4
809.778,1652.25
809.728,1675.45
809.677,1666.5
809.627,1669.65
809.576,1654.25
809.526,1670.85
809.475,1648.9
809.424,1673.1
809.374,1657.3
809.323,1649.45
809.273,1664.35
809.222,1643.25
809.172,1663.5
809.121,1658.05
809.07,1674.1
809.02,1684.05
808.969,1657.9
808.919,1675.8
808.868,1661.55
808.817,1660.3
808.767,1663.8
808.716,1662.1
808.666,1663.2
808.615,1658.95
808.564,1636.75
808.514,1641.05
808.463,1653.8
808.413,1648.3
808.362,1646.95
808.311,1652.3
808.261,1669.45
808.21,1673
808.159,1681.55
808.109,1652.65
808.058,1673.8
808.007,1672.15
807.957,1682.35
807.906,1665.15
807.855,1664.2
807.805,1666.2
807.754,1662.45
807.703,1655.1
807.653,1655.6
807.602,1646.6
807.551,1675.3
807.501,1651.35
807.45,1658
807.399,1655.1
807.349,1669.25
807.298,1682.1
807.247,1666.7
807.197,1681.7
807.146,1663.65
807.095,1659.35
807.044,1673.7
806.994,1652.55
806.943,1666.5
806.892,1649.2
806.842,1654.9
806.791,1645.85
806.74,1680.6
806.689,1660.65
806.639,1662.65
806.588,1653.95
806.537,1645.95
806.486,1651.05
806.436,1683.55
806.385,1654.65
806.334,1663
806.283,1671.8
806.233,1667.75
806.182,1681.55
806.131,1665.1
806.08,1669.95
806.03,1674.25
805.979,1656.65
805.928,1676.75
805.877,1652
805.826,1652.3
805.776,1648.95
805.725,1645.6
805.674,1665.35
805.623,1667.9
805.572,1674.9
805.522,1657.65
805.471,1665.2
805.42,1665.25
805.369,1657.3
805.318,1647.35
805.268,1661.65
805.217,1682.55
805.166,1660.4
805.115,1662.7
805.064,1667.5
805.013,1654.45
804.963,1646.1
804.912,1678.5
804.861,1657.6
804.81,1661.75
804.759,1672.85
804.708,1658.65
804.657,1671.4
804.607,1678.85
804.556,1662.9
804.505,1671.15
804.454,1670.95
804.403,1651.05
804.352,1664.35
804.301,1676.25
804.25,1663.5
804.2,1679.45
804.149,1679.6
804.098,1653.45
804.047,1665.5
803.996,1663.2
803.945,1671
803.894,1658.7
803.843,1665.5
803.792,1654.4
803.741,1666.85
803.69,1678.05
803.64,1677.75
803.589,1685.15
803.538,1651.6
803.487,1667.55
803.436,1670.5
803.385,1654.9
803.334,1651.05
803.283,1654.7
803.232,1641.95
803.181,1654.45
803.13,1654.25
803.079,1658.8
803.028,1673.1
802.977,1675.05
802.926,1676.25
802.875,1671.8
802.824,1674.75
802.773,1684.6
802.722,1663.2
802.671,1676.95
802.62,1671.65
802.569,1672.55
802.518,1663.8
802.467,1664.55
802.416,1656.45
802.365,1669.8
802.314,1653.2
802.263,1668
802.212,1650.45
802.161,1659.85
802.11,1667.65
802.059,1662.85
802.008,1657.3
801.957,1666.75
801.906,1635
801.855,1663.85
801.804,1670.4
801.753,1670.45
801.702,1656.4
801.651,1659.3
801.6,1662.5
801.549,1678.65
801.498,1671.55
801.447,1675.3
801.396,1659.5
801.345,1668.45
801.293,1670.15
801.242,1672.5
801.191,1671.95
801.14,1670.25
801.089,1666.85
801.038,1664.05
800.987,1671.7
800.936,1656.35
800.885,1680
800.834,1679.9
800.783,1618.75
800.731,1643
800.68,1653.6
800.629,1650.85
800.578,1653.8
800.527,1641.1
800.476,1662.7
800.425,1663.4
800.374,1666.9
800.322,1659.65
800.271,1658.95
800.22,1661.25
800.169,1652.9
800.118,1660.55
800.067,1673.75
800.016,1680.4
799.964,1643.5
799.913,1669.7
799.862,1655
799.811,1675.2
799.76,1651.45
799.709,1666.6
799.657,1653.35
799.606,1664.8
799.555,1656.9
799.504,1657.15
799.453,1664.85
799.401,1659.2
799.35,1658.4
799.299,1649.4
799.248,1662.55
799.197,1656.4
799.145,1683.3
799.094,1671.6
799.043,1667.1
798.992,1670.55
798.941,1649.55
798.889,1657.4
798.838,1644.6
798.787,1667.2
798.736,1661.6
798.684,1666.6
798.633,1656.55
798.582,1660.65
798.531,1681.65
798.479,1645.6
798.428,1655.4
798.377,1672.15
798.326,1655.4
798.274,1671.45
798.223,1671.15
798.172,1621.45
798.121,1675.55
798.069,1678
798.018,1680.45
797.967,1659.15
797.915,1673.25
797.864,1670.65
797.813,1670.8
797.762,1665.85
797.71,1651.75
797.659,1657.55
797.608,1663.95
797.556,1676.5
797.505,1666.2
797.454,1656.8
797.402,1663.05
797.351,1670.3
797.3,1680.75
797.248,1638.05
797.197,1660.05
797.146,1645.1
797.094,1659.25
797.043,1662.5
796.992,1671.35
796.94,1660.25
796.889,1644.15
796.838,1661.45
796.786,1665.35
796.735,1639.35
796.684,1673.15
796.632,1678.05
796.581,1671.95
796.53,1671.9
796.478,1668.45
796.427,1651.6
796.375,1677.55
796.324,1682.1
796.273,1648.3
796.221,1675
796.17,1660.15
796.119,1644.45
796.067,1641.3
796.016,1665.65
795.964,1675.25
795.913,1660.75
795.861,1675.75
795.81,1677.5
795.759,1648.5
795.707,1658.85
795.656,1671.15
795.604,1661.2
795.553,1647.05
795.501,1650.8
795.45,1640.35
795.399,1649.95
795.347,1628.95
795.296,1654.75
795.244,1679
795.193,1679.3
795.141,1670.8
795.09,1678.75
795.038,1675.7
794.987,1666.95
794.936,1675.1
794.884,1668.4
794.833,1669.2
794.781,1663.65
794.73,1652.1
794.678,1654.05
794.627,1641.8
794.575,1650
794.524,1655.8
794.472,1655.2
794.421,1664.45
794.369,1678.9
794.318,1672.25
794.266,1658.75
794.215,1672
794.163,1680.75
794.112,1672.6
794.06,1655.65
794.008,1644.75
793.957,1665.95
793.905,1654.5
793.854,1661.85
793.802,1651.45
793.751,1658.2
793.699,1632.55
793.648,1673.55
793.596,1671.2
793.545,1659
793.493,1661.35
793.441,1657
793.39,1651.45
793.338,1689.55
793.287,1661.4
793.235,1669.95
793.184,1642.45
793.132,1686.1
793.08,1657.75
793.029,1664.2
792.977,1624.15
792.926,1644.25
792.874,1646.95
792.822,1667.95
792.771,1641.7
792.719,1651.95
792.668,1645.7
792.616,1663.2
792.564,1656.35
792.513,1686.6
792.461,1679
792.41,1686.7
792.358,1660.8
792.306,1688.45
792.255,1682.45
792.203,1681.25
792.151,1660.5
792.1,1655.9
792.048,1663.25
791.996,1661.45
791.945,1649.1
791.893,1655.65
791.841,1666.25
791.79,1671.65
791.738,1641.75
791.686,1663.1
791.635,1675
791.583,1662.1
791.531,1666
791.48,1675.9
791.428,1680.8
791.376,1673.95
791.325,1667.85
791.273,1653.65
791.221,1669.75
791.17,1684.9
791.118,1639.15
791.066,1669.25
791.014,1632.05
790.963,1648.95
790.911,1658.6
790.859,1653.6
790.808,1657.55
790.756,1636.8
790.704,1642.9
790.652,1654.55
790.601,1653.25
790.549,1662.55
790.497,1646.6
790.445,1666.5
790.394,1657.35
790.342,1658.1
790.29,1719.05
790.238,1666.7
790.187,1652.65
790.135,1652.65
790.083,1643.45
790.031,1651.4
789.98,1672.15
789.928,1644.15
789.876,1658.75
789.824,1651.75
789.772,1659.75
789.721,1668.15
789.669,1656.25
789.617,1680.65
789.565,1653.3
789.513,1669.75
789.462,1663.15
789.41,1662.5
789.358,1674.5
789.306,1666.45
789.254,1670.6
789.203,1645.85
789.151,1648.85
789.099,1659.8
789.047,1653.5
788.995,1653.15
788.943,1653.6
788.892,1669.35
788.84,1665.75
788.788,1669.9
788.736,1682.9
788.684,1665.85
788.632,1680.1
788.58,1677.35
788.529,1667.9
788.477,1675.95
788.425,1655.85
788.373,1665.6
788.321,1655.4
788.269,1673.3
788.217,1660.8
788.165,1663.1
788.114,1654.65
788.062,1666.25
788.01,1649.15
787.958,1662.3
787.906,1660.6
787.854,1660.1
787.802,1664.25
787.75,1660.8
787.698,1681.2
787.646,1686
787.594,1650
787.543,1653.8
787.491,1653.2
787.439,1667.75
787.387,1649.45
787.335,1662.75
787.283,1668.1
787.231,1673.35
787.179,1690.55
787.127,1668.2
787.075,1661.4
787.023,1676.8
786.971,1678.3
786.919,1667
786.867,1672.85
786.815,1667.1
786.763,1664.95
786.711,1640.95
786.659,1671.55
786.607,1649.1
786.555,1629.7
786.503,1655.25
786.451,1653.65
786.399,1672.35
786.347,1664.3
786.295,1675.85
786.243,1663.7
786.191,1671.95
786.139,1659.5
786.087,1670.25
786.035,1680.2
785.983,1662.1
785.931,1642.45
785.879,1663.15
785.827,1643.45
785.775,1672.5
785.723,1639.75
785.671,1648.65
785.619,1639.3
785.567,1662.6
785.515,1644.45
785.463,1666.9
785.411,1679.15
785.359,1667.55
785.307,1657.75
785.255,1669.35
785.203,1687.35
785.151,1661.55
785.099,1662.5
785.046,1661.55
784.994,1633.95
784.942,1674.8
784.89,1655.15
784.838,1643.55
784.786,1649.05
784.734,1653.7
784.682,1664.75
784.63,1670
784.578,1665.95
784.525,1652.45
784.473,1683.95
784.421,1680.25
784.369,1677.85
784.317,1675.8
784.265,1662.45
784.213,1683.55
784.161,1660
784.109,1667.5
784.056,1664.05
784.004,1630.05
783.952,1657.15
783.9,1668.9
783.848,1662.7
783.796,1667.3
783.743,1655.2
783.691,1671.2
783.639,1662.65
783.587,1672.25
783.535,1662.3
783.483,1682
783.43,1666.5
783.378,1677.15
783.326,1675.8
783.274,1755.7
783.222,1887.8
783.17,1734.6
783.117,1692.25
783.065,1690.05
783.013,1683.05
782.961,1692
782.909,1684.2
782.856,1683.2
782.804,1668.7
782.752,1676.7
782.7,1685
782.647,1660.15
782.595,1651.9
782.543,1666.45
782.491,1660.2
782.439,1655.05
782.386,1650.7
782.334,1676.85
782.282,1646.5
782.23,1650.75
782.177,1667.7
782.125,1669.25
782.073,1670.4
782.021,1673.85
781.968,1683.4
781.916,1654.7
781.864,1664.45
781.811,1669.15
781.759,1661.6
781.707,1679.05
781.655,1657.75
781.602,1665.55
781.55,1665.25
781.498,1665.45
781.445,1648.95
781.393,1659.4
781.341,1666.1
781.289,1651.25
781.236,1669.05
781.184,1648.35
781.132,1677.6
781.079,1675.1
781.027,1672.55
780.975,1654.25
780.922,1672.25
780.87,1678.3
780.818,1657.5
780.765,1657.65
780.713,1674.95
780.661,1674.15
780.608,1684.3
780.556,1661.85
780.504,1651.7
780.451,1658.45
780.399,1670.6
780.347,1667.55
780.294,1664.75
780.242,1666.85
780.189,1680.15
780.137,1675.25
780.085,1652.8
780.032,1672.25
779.98,1655.05
779.928,1670.8
779.875,1665.4
779.823,1665.8
779.77,1654.1
779.718,1656.1
779.666,1674.7
779.613,1636.9
779.561,1637.05
779.508,1654.6
779.456,1654.2
779.404,1651.1
779.351,1641.55
779.299,1666.45
779.246,1664.45
779.194,1691.3
779.141,1683.7
779.089,1667.15
779.037,1666.35
778.984,1670.95
778.932,1657.45
778.879,1651.7
778.827,1647.35
778.774,1664.95
778.722,1647.95
778.669,1649.2
778.617,1651.4
778.564,1666.05
778.512,1649.85
778.459,1665.85
778.407,1652.3
778.354,1657.3
778.302,1665.4
778.25,1667.9
778.197,1679.65
778.145,1684.1
778.092,1669.3
778.04,1687.45
777.987,1660.3
777.935,1660.3
777.882,1645
777.83,1658.15
777.777,1659.8
777.724,1651.2
777.672,1658.9
777.619,1644.1
777.567,1645.15
777.514,1659.75
777.462,1662.25
777.409,1670.55
777.357,1680.3
777.304,1675.95
777.252,1679
777.199,1674.7
777.147,1660.85
777.094,1662.55
777.041,1668.35
776.989,1654.05
776.936,1645.45
776.884,1651.25
776.831,1658
776.779,1671.2
776.726,1652
776.673,1651.7
776.621,1661.9
776.568,1663.65
776.516,1662.6
776.463,1659.85
776.41,1687.45
776.358,1683.5
776.305,1678.55
776.253,1673.3
776.2,1694.8
776.147,1662.75
776.095,1673.45
776.042,1675.55
775.99,1649.25
775.937,1655.75
775.884,1650.65
775.832,1639.8
775.779,1645.55
775.726,1626.2
775.674,1661.25
775.621,1669.45
775.568,1662.55
775.516,1664.35
775.463,1671.75
775.411,1657.5
775.358,1660.7
775.305,1680.85
775.253,1665.45
775.2,1657.65
775.147,1664.9
775.094,1649.85
775.042,1655.4
774.989,1663.85
774.936,1644.95
774.884,1640.75
774.831,1665.95
774.778,1666.9
774.726,1665.75
774.673,1652.85
774.62,1658.8
774.568,1645.05
774.515,1662.65
774.462,1688.35
774.409,1660.2
774.357,1693.15
774.304,1648
774.251,1648.4
774.199,1655.95
774.146,1644.3
774.093,1621.8
774.04,1651.45
773.988,1649.8
773.935,1661.3
773.882,1667.3
773.829,1670.4
773.777,1648.7
773.724,1677.1
773.671,1678.8
773.618,1670.5
773.566,1668.7
773.513,1666.6
773.46,1665.65
773.407,1656.6
773.354,1653.05
773.302,1673.15
773.249,1663.25
773.196,1649.95
773.143,1652.55
773.09,1649.55
773.038,1663.6
772.985,1669.35
772.932,1653.15
772.879,1668.95
772.826,1667.45
772.774,1663.8
772.721,1669.3
772.668,1663.7
772.615,1668.6
772.562,1675.5
772.509,1656.3
772.457,1693.35
772.404,1653.95
772.351,1657.7
772.298,1653.45
772.245,1654.7
772.192,1663.95
772.14,1664.3
772.087,1654.65
772.034,1654.15
771.981,1672.1
771.928,1676
771.875,1653.75
771.822,1665.95
771.77,1665
771.717,1664.85
771.664,1656.05
771.611,1632.95
771.558,1641.2
771.505,1647.15
771.452,1675.05
771.399,1654.5
771.346,1678.05
771.294,1660.1
771.241,1655.45
771.188,1675.2
771.135,1675.9
771.082,1665.05
771.029,1679.65
770.976,1679.75
770.923,1667.4
770.87,1678.4
770.817,1667.6
770.764,1674.25
770.711,1665.35
770.658,1656.6
770.605,1688
770.553,1666.45
770.5,1648.15
770.447,1667.35
770.394,1664.4
770.341,1654.3
770.288,1665.1
770.235,1660.3
770.182,1683.1
770.129,1669.35
770.076,1664.7
770.023,1690
769.97,1668.5
769.917,1676.45
769.864,1670.45
769.811,1686.3
769.758,1679.8
769.705,1669.35
769.652,1656.05
769.599,1662.25
769.546,1663.05
769.493,1670.5
769.44,1652.45
769.387,1641.65
769.334,1666.2
769.281,1642.15
769.228,1666.9
769.175,1651.65
769.122,1645.45
769.069,1684.5
769.016,1657.85
768.963,1650.15
768.91,1638.9
768.857,1667.65
768.804,1667.05
768.75,1653.85
768.697,1641.85
768.644,1663.45
768.591,1664.95
768.538,1670.75
768.485,1660.55
768.432,1672.1
768.379,1670.25
768.326,1676.3
768.273,1667.1
768.22,1686.15
768.167,1669.55
768.114,1673.4
768.061,1660.35
768.007,1647.15
767.954,1646.85
767.901,1671
767.848,1662.7
767.795,1651.45
767.742,1658.7
767.689,1674.85
767.636,1670.3
767.583,1674.95
767.529,1661
767.476,1663.45
767.423,1657.65
767.37,1672.15
767.317,1677.85
767.264,1672.45
767.211,1677.05
767.157,1661.45
767.104,1661
767.051,1659.85
766.998,1666.25
766.945,1668.8
766.892,1660.6
766.838,1667.35
766.785,1661.45
766.732,1670.55
766.679,1672.25
766.626,1665.15
766.573,1676.2
766.519,1674.8
766.466,1680.35
766.413,1675.8
766.36,1666.8
766.307,1682.3
766.253,1643.2
766.2,1682.15
766.147,1655.3
766.094,1654.15
766.041,1662.3
765.987,1638.8
765.934,1639.15
765.881,1646.95
765.828,1664.15
765.775,1659.3
765.721,1662.35
765.668,1661.1
765.615,1662.1
765.562,1687.4
765.508,1666.95
765.455,1665.35
765.402,1683.7
765.349,1686.8
765.295,1649.55
765.242,1674.85
765.189,1675.65
765.136,1643.25
765.082,1652.7
765.029,1655.35
764.976,1654.65
764.922,1656.5
764.869,1641.25
764.816,1662.65
764.763,1661.65
764.709,1673.5
764.656,1665.25
764.603,1665.95
764.549,1680.45
764.496,1681.3
764.443,1678.9
764.389,1670.65
764.336,1664.5
764.283,1663.95
764.23,1645.45
764.176,1653
764.123,1655.7
764.07,1667.85
764.016,1648.1
763.963,1649.6
763.91,1654.55
763.856,1648.85
763.803,1652.35
763.749,1655.15
763.696,1667.85
763.643,1654.85
763.589,1666.85
763.536,1651.9
763.483,1684.7
763.429,1668.65
763.376,1655.65
763.323,1652.55
763.269,1659.5
763.216,1666.45
763.162,1653.85
763.109,1665.4
763.056,1663.85
763.002,1670.35
762.949,1667.6
762.896,1680.95
762.842,1677.35
762.789,1667.2
762.735,1679.45
762.682,1666.25
762.628,1650.3
762.575,1666.4
762.522,1672
762.468,1660.95
762.415,1643.4
762.361,1654.65
762.308,1675.8
762.254,1673.7
762.201,1654.25
762.148,1674.95
762.094,1645.75
762.041,1664.95
761.987,1678.85
761.934,1672.95
761.88,1677.05
761.827,1652.75
761.773,1663.75
761.72,1668.7
761.667,1653.7
761.613,1663.95
761.56,1657.45
761.506,1643
761.453,1663.5
761.399,1670.6
761.346,1661.7
761.292,1667
761.239,1679.25
761.185,1662.1
761.132,1674.2
761.078,1676.4
761.025,1672.1
760.971,1669.8
760.918,1668.9
760.864,1650.5
760.811,1660.25
760.757,1665.8
760.704,1662.45
760.65,1655
760.596,1657.3
760.543,1647.7
760.489,1666.45
760.436,1669.35
760.382,1647.9
760.329,1646.25
760.275,1661.05
760.222,1678.8
760.168,1657.8
760.115,1676.35
760.061,1664.8
760.007,1669.75
759.954,1662.9
759.9,1671.15
759.847,1661.55
759.793,1656.65
759.74,1657.8
759.686,1657.85
759.632,1651.25
759.579,1667.65
759.525,1656.7
759.472,1675.3
759.418,1650.75
759.364,1659.9
759.311,1667.3
759.257,1663.4
759.204,1677.95
759.15,1679.55
759.096,1655.7
759.043,1664.75
758.989,1675.1
758.935,1675.2
758.882,1667.5
758.828,1670.8
758.775,1673.5
758.721,1647.25
758.667,1665
758.614,1653.85
758.56,1661.75
758.506,1663.95
758.453,1676.5
758.399,1656.85
758.345,1649.6
758.292,1679.9
758.238,1675.95
758.184,1683.8
758.131,1647.2
758.077,1654.45
758.023,1653.65
757.97,1662.35
757.916,1664.95
757.862,1648.15
757.809,1659.1
757.755,1649.95
757.701,1660.4
757.647,1664.1
757.594,1656.15
757.54,1675.75
757.486,1682.8
757.433,1663.45
757.379,1664.45
757.325,1658.55
757.271,1664.95
757.218,1673.9
757.164,1687.7
757.11,1670.45
757.056,1661.7
757.003,1659.95
756.949,1665.9
756.895,1650.65
756.842,1663.1
756.788,1665.55
756.734,1676.7
756.68,1675.35
756.626,1663.85
756.573,1656.25
756.519,1649.35
756.465,1681.35
756.411,1667.6
756.358,1651.1
756.304,1659.9
756.25,1672.3
756.196,1662.05
756.142,1658.65
756.089,1662.95
756.035,1655.45
755.981,1666.8
755.927,1668.4
755.873,1673.9
755.82,1666.85
755.766,1672.7
755.712,1679.45
755.658,1653.2
755.604,1668.6
755.551,1667.3
755.497,1665.85
755.443,1658.35
755.389,1666.85
755.335,1659.25
755.281,1629.4
755.228,1658.1
755.174,1642.7
755.12,1649.55
755.066,1657.6
755.012,1649.55
754.958,1685.6
754.904,1662.3
754.851,1668.7
754.797,1679.75
754.743,1687
754.689,1678.7
754.635,1675.95
754.581,1683.4
754.527,1666.45
754.473,1660.1
754.42,1665.2
754.366,1650.75
754.312,1633.3
754.258,1644.6
754.204,1629.7
754.15,1655.1
754.096,1649.75
754.042,1667.85
753.988,1652.9
753.934,1661.1
753.88,1672.6
753.827,1677.95
753.773,1684.9
753.719,1669
753.665,1684.1
753.611,1681.05
753.557,1668.2
753.503,1671.9
753.449,1682.9
753.395,1669.4
753.341,1663.05
753.287,1656.15
753.233,1643.65
753.179,1626.5
753.125,1649.15
753.071,1639.6
753.017,1674.1
752.963,1664.8
752.909,1664.1
752.855,1681.55
752.801,1667.6
752.747,1676.75
752.693,1672.05
752.639,1679.9
752.585,1667.05
752.531,1671.4
752.477,1657.2
752.423,1631.35
752.369,1650.6
752.315,1655.8
752.261,1646.4
752.207,1659.05
752.153,1663
752.099,1636.6
752.045,1667.55
751.991,1677.65
751.937,1671.05
751.883,1667.35
751.829,1679.45
751.775,1682.6
751.721,1684.4
751.667,1660.55
751.613,1674.75
751.559,1656.4
751.505,1644.75
751.451,1662.35
751.397,1657.85
751.343,1657.4
751.289,1670.8
751.235,1651.25
751.181,1667.95
751.126,1661.1
751.072,1673.9
751.018,1670.55
750.964,1662.85
750.91,1677.35
750.856,1670.4
750.802,1675.8
750.748,1658.65
750.694,1651.05
750.64,1676.55
750.585,1651.45
750.531,1669.1
750.477,1655.95
750.423,1648.55
750.369,1659.7
750.315,1653.15
750.261,1637.9
750.207,1660.9
750.152,1664.7
750.098,1655.25
750.044,1659.75
749.99,1678.15
749.936,1672.3
749.882,1677.45
749.828,1679.7
749.773,1671.2
749.719,1661
749.665,1650.7
749.611,1650.8
749.557,1641.1
749.503,1672.75
749.448,1652.15
749.394,1658.35
749.34,1663.2
749.286,1658.2
749.232,1664.35
749.178,1679.05
749.123,1672.5
749.069,1659.75
749.015,1696.45
748.961,1656.9
748.907,1678.95
748.852,1684.6
748.798,1664.55
748.744,1669.7
748.69,1673.35
748.635,1670.8
748.581,1659.2
748.527,1669
748.473,1667.4
748.419,1647.2
748.364,1655.9
748.31,1668.15
748.256,1649.95
748.202,1657.35
748.147,1653.6
748.093,1652
748.039,1675.9
747.985,1666.1
747.93,1670.4
747.876,1670.9
747.822,1661.4
747.767,1647.3
747.713,1666.1
747.659,1658.1
747.605,1666.3
747.55,1645.2
747.496,1664.6
747.442,1640.25
747.388,1665.5
747.333,1658.1
747.279,1660
747.225,1655.4
747.17,1645.95
747.116,1645.4
747.062,1647.2
747.007,1700
746.953,1655.3
746.899,1651.8
746.844,1651.5
746.79,1658.05
746.736,1660.85
746.681,1655.6
746.627,1672.95
746.573,1682
746.518,1692.75
746.464,1673.6
746.41,1665.1
746.355,1688
746.301,1684.65
746.247,1666
746.192,1676.55
746.138,1647.75
746.084,1660.05
746.029,1652.65
745.975,1638.35
745.92,1649.2
745.866,1641.7
745.812,1653.2
745.757,1676.15
745.703,1677
745.649,1660.55
745.594,1688.75
745.54,1670.5
745.485,1669.6
745.431,1676.15
745.377,1668.25
745.322,1671.35
745.268,1675.65
745.213,1652.9
745.159,1654.3
745.104,1667.75
745.05,1643.65
744.996,1675.3
744.941,1665.75
744.887,1658.65
744.832,1670.2
744.778,1673.75
744.723,1643.3
744.669,1656.1
744.615,1666.45
744.56,1670.4
744.506,1675.1
744.451,1683
744.397,1652.05
744.342,1635.8
744.288,1710.25
744.233,1649.1
744.179,1633.55
744.124,1654.2
744.07,1656.3
744.015,1632.9
743.961,1647.6
743.906,1652.75
743.852,1660.6
743.797,1657.8
743.743,1655.25
743.688,1673
743.634,1671.25
743.579,1682
743.525,1669.15
743.47,1657.95
743.416,1675.5
743.361,1656.75
743.307,1651.4
743.252,1672.4
743.198,1659.15
743.143,1647.1
743.089,1654.05
743.034,1661.05
742.98,1644.7
742.925,1645.9
742.87,1673.55
742.816,1668.55
742.761,1640.4
742.707,1689.05
742.652,1655.4
742.598,1675.45
742.543,1670.5
742.489,1666.25
742.434,1667.65
742.379,1658.95
742.325,1650.9
742.27,1665.2
742.216,1685.45
742.161,1652.35
742.106,1675.4
742.052,1672.75
741.997,1670.7
741.943,1654.55
741.888,1660.15
741.833,1658.4
741.779,1659.85
741.724,1680.95
741.67,1673.9
741.615,1667.4
741.56,1671.9
741.506,1691.8
741.451,1672.3
741.397,1626.85
741.342,1649.45
741.287,1661.5
741.233,1666.3
741.178,1660.55
741.123,1666.05
741.069,1689.85
741.014,1643.35
740.959,1672.25
740.905,1676.45
740.85,1667.05
740.795,1675.1
740.741,1665.45
740.686,1652.05
740.631,1685.5
740.577,1669.3
740.522,1673
740.467,1640.25
740.413,1647.75
740.358,1657.4
740.303,1662.35
740.249,1653.25
740.194,1638.3
740.139,1665.25
740.084,1670.6
740.03,1679
739.975,1652.95
739.92,1671.45
739.866,1665.8
739.811,1677.85
739.756,1686.05
739.701,1658.5
739.647,1663.8
739.592,1681.4
739.537,1661.45
739.482,1644.3
739.428,1659.25
739.373,1664.05
739.318,1647.9
739.263,1645.8
739.209,1662.4
739.154,1640.8
739.099,1676.1
739.044,1668.65
738.99,1654.35
738.935,1686.85
738.88,1674.75
738.825,1662.5
738.771,1674.8
738.716,1653.1
738.661,1649.15
738.606,1632.95
738.551,1651.6
738.497,1667.95
738.442,1639.75
738.387,1633.45
738.332,1668.95
738.277,1655.15
738.223,1667.7
738.168,1666.3
738.113,1667.25
738.058,1672.7
738.003,1675.05
737.949,1677.6
737.894,1680.25
737.839,1658.35
737.784,1671.45
737.729,1649.75
737.674,1677.8
737.619,1665.9
737.565,1670.55
737.51,1663.95
737.455,1653.9
737.4,1652.35
737.345,1651.3
737.29,1675.2
737.236,1676.85
737.181,1662.1
737.126,1678.2
737.071,1670.05
737.016,1683.45
736.961,1664.4
736.906,1667.55
736.851,1686.65
736.796,1691.9
736.742,1661.2
736.687,1680.95
736.632,1664.2
736.577,1676.8
736.522,1678.3
736.467,1652.9
736.412,1648.6
736.357,1660.45
736.302,1663.6
736.247,1647.15
736.192,1656.35
736.138,1657.95
736.083,1645.5
736.028,1641.6
735.973,1665.55
735.918,1635.5
735.863,1633.55
735.808,1649.2
735.753,1664.85
735.698,1660.4
735.643,1652.7
735.588,1661.8
735.533,1660.35
735.478,1674.9
735.423,1651.05
735.368,1651.05
735.313,1655.3
735.258,1678.15
735.203,1676.8
735.148,1661.25
735.093,1679.25
735.038,1668.55
734.983,1663.7
734.928,1678.2
734.873,1675.55
734.818,1663.85
734.763,1678.95
734.708,1668.55
734.653,1660.95
734.598,1662.55
734.543,1664.9
734.488,1652.05
734.433,1658.7
734.378,1665.6
734.323,1653.25
734.268,1656.75
734.213,1648.15
734.158,1651.75
734.103,1635.65
734.048,1662.2
733.993,1657.2
733.938,1647.8
733.883,1645.5
733.828,1665.65
733.773,1667.5
733.718,1676.4
733.663,1675.7
733.608,1678.05
733.553,1676.75
733.497,1663.6
733.442,1673.7
733.387,1659
733.332,1672.75
733.277,1646
733.222,1660.75
733.167,1650.95
733.112,1622.3
733.057,1659.95
733.002,1677.15
732.947,1662.95
732.891,1671.95
732.836,1649.8
732.781,1652.1
732.726,1683.3
732.671,1663.2
732.616,1685.65
732.561,1673.5
732.506,1672.1
732.45,1663.7
732.395,1661.15
732.34,1664.1
732.285,1665.2
732.23,1660.65
732.175,1647.65
732.12,1655.5
732.064,1632.1
732.009,1660.45
731.954,1666.25
731.899,1657.75
731.844,1671
731.789,1650.25
731.733,1672.3
731.678,1668.9
731.623,1675
731.568,1674.3
731.513,1682.75
731.458,1664.95
731.402,1668.1
731.347,1673.15
731.292,1658.45
731.237,1643.9
731.182,1664.5
731.126,1674.75
731.071,1659
731.016,1654.9
730.961,1667.55
730.906,1644
730.85,1656.05
730.795,1644.75
730.74,1658.35
730.685,1655
730.629,1660.45
730.574,1656.15
730.519,1658.15
730.464,1648.45
730.408,1656.65
730.353,1662.05
730.298,1646.7
730.243,1690.1
730.187,1649.3
730.132,1645.55
730.077,1649.5
730.022,1650.2
729.966,1663.2
729.911,1652.45
729.856,1659.25
729.801,1679.55
729.745,1670.25
729.69,1679.4
729.635,1687.9
729.579,1673.45
729.524,1670.95
729.469,1679.45
729.413,1678
729.358,1649
729.303,1646.9
729.248,1659.7
729.192,1655.2
729.137,1663
729.082,1656.95
729.026,1637.85
728.971,1640.1
728.916,1666.65
728.86,1689.9
728.805,1661.95
728.75,1647.55
728.694,1665.3
728.639,1672.65
728.584,1677.55
728.528,1670.1
728.473,1670.5
728.418,1647.6
728.362,1656.15
728.307,1684.3
728.251,1661.55
728.196,1658.95
728.141,1641.15
728.085,1647.7
728.03,1664.45
727.975,1654.95
727.919,1655.95
727.864,1650.45
727.808,1673.4
727.753,1686.7
727.698,1654.2
727.642,1662.8
727.587,1666.95
727.531,1678.55
727.476,1654.55
727.421,1709.6
727.365,1644.3
727.31,1667.4
727.254,1661.9
727.199,1657
727.144,1660.2
727.088,1674.6
727.033,1656.3
726.977,1671.25
726.922,1667.25
726.866,1674.25
726.811,1671.95
726.755,1668.8
726.7,1646.8
726.645,1647.8
726.589,1653.65
726.534,1661.7
726.478,1667.95
726.423,1676.4
726.367,1657.6
726.312,1679.05
726.256,1665.85
726.201,1666.25
726.145,1658.75
726.09,1691.5
726.034,1670.1
725.979,1667.15
725.923,1647.35
725.868,1667.8
725.812,1654.45
725.757,1658.55
725.701,1676.9
725.646,1672.1
725.59,1665.4
725.535,1666.9
725.479,1658.45
725.424,1656.3
725.368,1682.25
725.313,1658.95
725.257,1664.05
725.202,1652
725.146,1673.35
725.091,1673.15
725.035,1665.9
724.98,1677.15
724.924,1651.25
724.868,1668.65
724.813,1656.85
724.757,1657.6
724.702,1640.15
724.646,1653.6
724.591,1611.25
724.535,1628.45
724.48,1643.35
724.424,1673.75
724.368,1669.95
724.313,1660.35
724.257,1657.45
724.202,1679.6
724.146,1648.7
724.09,1656.8
724.035,1676.55
723.979,1661.2
723.924,1666
723.868,1681.8
723.812,1654
723.757,1650.15
723.701,1648
723.646,1650
723.59,1660.8
723.534,1661.9
723.479,1649.8
723.423,1646.9
723.367,1662.35
723.312,1643.7
723.256,1655.7
723.201,1666.2
723.145,1651.65
723.089,1668.2
723.034,1660.25
722.978,1667.85
722.922,1657
722.867,1644.15
722.811,1649.1
722.755,1662.35
722.7,1660.25
722.644,1665.9
722.588,1663.7
722.533,1659.85
722.477,1656.15
722.421,1661.7
722.366,1662.7
722.31,1654.8
722.254,1664.6
722.198,1667.5
722.143,1646.55
722.087,1661.05
722.031,1673.3
721.976,1676.95
721.92,1663.25
721.864,1659.55
721.808,1628.85
721.753,1658.3
721.697,1652.1
721.641,1657.4
721.586,1658.25
721.53,1648.85
721.474,1662.7
721.418,1652.6
721.363,1664.35
721.307,1655.8
721.251,1644.6
721.195,1657.95
721.14,1661.15
721.084,1658.45
721.028,1671.85
720.972,1669.7
720.917,1654.25
720.861,1662.15
720.805,1638.9
720.749,1652.35
720.693,1648.35
720.638,1665.75
720.582,1678.4
720.526,1672.8
720.47,1649.5
720.415,1677.25
720.359,1667.75
720.303,1669.85
720.247,1664.35
720.191,1659.8
720.135,1663.5
720.08,1685.85
720.024,1669.85
719.968,1690.35
719.912,1654.3
719.856,1648.75
719.801,1669.85
719.745,1653.1
719.689,1637.7
719.633,1663.35
719.577,1643.25
719.521,1660.9
719.466,1667.45
719.41,1666.2
719.354,1658.4
719.298,1672.55
719.242,1670.9
719.186,1660.95
719.13,1657.25
719.075,1657.75
719.019,1648.85
718.963,1648.4
718.907,1664.4
718.851,1661.8
718.795,1652.6
718.739,1663.2
718.683,1657.15
718.627,1653.45
718.572,1639.1
718.516,1686.4
718.46,1665.9
718.404,1689.75
718.348,1652.25
718.292,1670.95
718.236,1664.35
718.18,1654.3
718.124,1663.95
718.068,1656.45
718.012,1660.45
717.957,1640.05
717.901,1646.5
717.845,1659.3
717.789,1645.15
717.733,1672.7
717.677,1654.05
717.621,1653.3
717.565,1659.75
717.509,1642.95
717.453,1649.15
717.397,1670.25
717.341,1674.8
717.285,1664.6
717.229,1685.15
717.173,1673.55
717.117,1656.15
717.061,1673.25
717.005,1652.9
716.949,1656.55
716.893,1661.2
716.837,1653.45
716.781,1664.85
716.725,1640.1
716.669,1658.6
716.613,1647.35
716.557,1648.65
716.501,1660.65
716.445,1657.1
716.389,1661.95
716.333,1671.45
716.277,1667.85
716.221,1672.65
716.165,1667.95
716.109,1641.7
716.053,1676.4
715.997,1664.3
715.941,1658.6
715.885,1664.3
715.829,1670.9
715.773,1652.3
715.717,1655.7
715.661,1646.4
715.605,1655.4
715.549,1648.5
715.493,1681.9
715.437,1668.8
715.381,1670.6
715.325,1656
715.268,1664.4
715.212,1661.35
715.156,1657.35
715.1,1656.4
715.044,1662.05
714.988,1650
714.932,1679.35
714.876,1678.55
714.82,1682.35
714.764,1677.6
714.708,1673.4
714.651,1676.15
714.595,1683.8
714.539,1663.6
714.483,1649.4
714.427,1661.1
714.371,1680.3
714.315,1670.1
714.259,1660.35
714.202,1676.4
714.146,1652.65
714.09,1654.75
714.034,1637.15
713.978,1649.85
713.922,1651.45
713.866,1667.1
713.809,1666.95
713.753,1666.6
713.697,1683.85
713.641,1673.35
713.585,1659.8
713.529,1682.65
713.473,1671.7
713.416,1660.25
713.36,1658.85
713.304,1657.5
713.248,1649.5
713.192,1656.55
713.135,1670.35
713.079,1650.15
713.023,1653.4
712.967,1641
712.911,1654.75
712.854,1650.45
712.798,1677.45
712.742,1667.75
712.686,1680.5
712.63,1690
712.573,1683.65
712.517,1678.6
712.461,1675.05
712.405,1693.8
712.348,1681.55
712.292,1664.6
712.236,1653.8
712.18,1665.7
712.124,1664.7
712.067,1677.45
712.011,1659
711.955,1655.5
711.899,1664.2
711.842,1659.85
711.786,1661.2
711.73,1682.45
711.673,1673.8
711.617,1661.15
711.561,1673.95
711.505,1672.75
711.448,1658
711.392,1661.85
711.336,1688.9
711.28,1663.95
711.223,1656.8
711.167,1661.25
711.111,1687.85
711.054,1651.15
710.998,1679.45
710.942,1654.55
710.885,1665.15
710.829,1657.8
710.773,1658.75
710.716,1652.4
710.66,1664.4
710.604,1659.95
710.547,1664.7
710.491,1649.65
710.435,1655.55
710.378,1684.8
710.322,1666.6
710.266,1673.9
710.209,1662.55
710.153,1667.3
710.097,1660.4
710.04,1672.05
709.984,1655.5
709.928,1651.4
709.871,1660.1
709.815,1667.9
709.759,1664.65
709.702,1668.9
709.646,1682.2
709.589,1666.55
709.533,1644.3
709.477,1658.95
709.42,1658.25
709.364,1666.55
709.308,1660.4
709.251,1661.7
709.195,1664.1
709.138,1666.05
709.082,1671.55
709.026,1668.1
708.969,1661.75
708.913,1667.85
708.856,1679.5
708.8,1661.6
708.743,1658.95
708.687,1646.1
708.631,1657.65
708.574,1646.7
708.518,1656.35
708.461,1654.3
708.405,1666.8
708.348,1665.85
708.292,1658.8
708.235,1658.7
708.179,1685.6
708.123,1668.6
708.066,1683.65
708.01,1667.3
707.953,1674.3
707.897,1682.35
707.84,1663.85
707.784,1662.4
707.727,1677.15
707.671,1669.25
707.614,1654.6
707.558,1665.6
707.501,1679.5
707.445,1656.45
707.388,1639.25
707.332,1650.75
707.275,1661.3
707.219,1654.3
707.162,1672.4
707.106,1680.1
707.049,1658.7
706.993,1689.4
706.936,1670.15
706.88,1684.7
706.823,1664.8
706.767,1664.95
706.71,1660.35
706.654,1658.3
706.597,1669.9
706.541,1657.2
706.484,1647.25
706.427,1673.95
706.371,1660.9
706.314,1675.1
706.258,1655.3
706.201,1674.35
706.145,1654.05
706.088,1664.7
706.032,1670.8
705.975,1652.2
705.918,1668.95
705.862,1666.6
705.805,1682.2
705.749,1651.65
705.692,1685.15
705.635,1663.1
705.579,1669.75
705.522,1668.1
705.466,1654.15
705.409,1664.65
705.352,1672.2
705.296,1675.75
705.239,1686.25
705.183,1664.75
705.126,1658.6
705.069,1667.75
705.013,1679.8
704.956,1658.05
704.9,1663.65
704.843,1655.35
704.786,1684.65
704.73,1653.3
704.673,1632.85
704.616,1675.95
704.56,1704.45
704.503,1651.15
704.446,1659
704.39,1654.05
704.333,1646.15
704.276,1637.1
704.22,1668.5
704.163,1663.7
704.106,1655.6
704.05,1670.05
703.993,1678.6
703.936,1656.65
703.88,1673.95
703.823,1672.5
703.766,1663.25
703.71,1652.85
703.653,1671.6
703.596,1658.05
703.54,1656.9
703.483,1663.2
703.426,1658.4
703.369,1668.25
703.313,1683.75
703.256,1654.5
703.199,1676.2
703.143,1664.55
703.086,1657.2
703.029,1668.35
702.972,1683.7
702.916,1663.4
702.859,1657.75
702.802,1658.1
702.745,1659
702.689,1673.95
702.632,1660.3
702.575,1666.15
702.518,1666.65
702.462,1643.3
702.405,1670.6
702.348,1656.2
702.291,1657.7
702.235,1652.45
702.178,1666.75
702.121,1654.8
702.064,1640.65
702.007,1649.3
701.951,1661.4
701.894,1656.7
701.837,1674.1
701.78,1666.35
701.723,1651.45
701.667,1701
701.61,1664.5
701.553,1645
701.496,1651.35
701.439,1646.3
701.383,1663.65
701.326,1673.3
701.269,1658.45
701.212,1663.2
701.155,1686.3
701.099,1669.2
701.042,1658.9
700.985,1677.35
700.928,1676.9
700.871,1679.8
700.814,1669.4
700.757,1655.7
700.701,1647.6
700.644,1653.8
700.587,1668.45
700.53,1666.9
700.473,1664.1
700.416,1675
700.359,1656.75
700.303,1659.65
700.246,1669.85
700.189,1678.15
700.132,1669.6
700.075,1675.45
700.018,1670.45
699.961,1656.3
699.904,1662.25
699.847,1661.2
699.791,1658.4
699.734,1677.15
699.677,1657
699.62,1658.95
699.563,1649.6
699.506,1661.1
699.449,1656.9
699.392,1674.55
699.335,1661.2
699.278,1667.05
699.221,1657.95
699.164,1659.65
699.108,1654.35
699.051,1663.5
698.994,1663.45
698.937,1665.35
698.88,1668.05
698.823,1661.85
698.766,1681.15
698.709,1661.9
698.652,1640.25
698.595,1667
698.538,1644.95
698.481,1646.7
698.424,1673
698.367,1661.8
698.31,1659.2
698.253,1659.2
698.196,1657.75
698.139,1679.6
698.082,1668.7
698.025,1652.2
697.968,1642.05
697.911,1645.85
697.854,1661.9
697.797,1640.6
697.74,1664.8
697.683,1670
697.626,1663.15
697.569,1657.4
697.512,1672.65
697.455,1646.4
697.398,1662.5
697.341,1664.35
697.284,1663.45
697.227,1662.15
697.17,1676.75
697.113,1666.1
697.056,1672.75
696.999,1676.7
696.942,1673.5
696.885,1668.15
696.828,1663.15
696.771,1638.05
696.714,1667.5
696.657,1642.1
696.599,1668.5
696.542,1662.4
696.485,1688.35
696.428,1649.45
696.371,1677.55
696.314,1651.5
696.257,1671.7
696.2,1663.85
696.143,1652.05
696.086,1658.8
696.029,1657.8
695.971,1653.45
695.914,1682.2
695.857,1690.8
695.8,1644.25
695.743,1640.7
695.686,1657.7
695.629,1650.15
695.572,1667.3
695.515,1665.1
695.457,1676.15
695.4,1690.1
695.343,1663.7
695.286,1661.2
695.229,1643.5
695.172,1661.1
695.115,1661.65
695.057,1671.4
695,1663.35
694.943,1653.65
694.886,1673.2
694.829,1664.4
694.772,1653
694.715,1661.1
694.657,1671.95
694.6,1653.1
694.543,1666.1
694.486,1655.65
694.429,1662.75
694.371,1653.2
694.314,1677.9
694.257,1667.05
694.2,1660.2
694.143,1683.45
694.086,1658.05
694.028,1651.8
693.971,1645.4
693.914,1661.8
693.857,1659.25
693.799,1654.8
693.742,1654.1
693.685,1670.1
693.628,1655.45
693.571,1659.4
693.513,1676.25
693.456,1662.3
693.399,1673
693.342,1661.8
693.284,1641.4
693.227,1649.5
693.17,1669.8
693.113,1652.4
693.055,1666.05
692.998,1670.15
692.941,1688.5
692.884,1643.5
692.826,1663.8
692.769,1667.05
692.712,1662.7
692.655,1654.7
692.597,1662.3
692.54,1656.65
692.483,1689.65
692.425,1671.2
692.368,1652.25
692.311,1667.65
692.254,1658.7
