Wavelength,IntensityFactor
880.492,1677.3
880.446,1658.9
880.4,1658.5
880.355,1675.55
880.309,1688.95
880.263,1664.55
880.217,1676.15
880.172,1683
880.126,1660.35
880.08,1661
880.034,1663.35
879.989,1665.1
879.943,1675.25
879.897,1666.05
879.852,1792.15
879.806,1684.7
879.76,1687.2
879.714,1675.3
879.669,1663.05
879.623,1690.7
879.577,1680.55
879.531,1679
879.485,1694.3
879.44,1670
879.394,1664.4
879.348,1666
879.302,1682.4
879.257,1661.65
879.211,1660.95
879.165,1651.15
879.119,1675.95
879.073,1659.4
879.028,1657.05
878.982,1670.85
878.936,1682.25
878.89,1673.15
878.844,1666.5
878.799,1670.6
878.753,1671.75
878.707,1683.6
878.661,1665.95
878.615,1679.95
878.569,1679.4
878.524,1664.5
878.478,1662.4
878.432,1680.85
878.386,1668.2
878.34,1662.2
878.294,1661.05
878.248,1667.1
878.203,1678.1
878.157,1674.85
878.111,1657.45
878.065,1667.15
878.019,1667.7
877.973,1662.6
877.927,1655.95
877.881,1650.3
877.836,1673.4
877.79,1648.95
877.744,1660.05
877.698,1660
877.652,1674.45
877.606,1667.85
877.56,1664.85
877.514,1741.6
877.468,1667.95
877.422,1669.2
877.376,1681.5
877.331,1657.35
877.285,1647.35
877.239,1675.35
877.193,1657.05
877.147,1673.3
877.101,1666.3
877.055,1654.7
877.009,1664.1
876.963,1681.1
876.917,1640.5
876.871,1682.2
876.825,1659.25
876.779,1671.85
876.733,1679
876.687,1673.95
876.641,1675.5
876.595,1669.75
876.549,1653.15
876.503,1681.2
876.457,1674.4
876.411,1668.8
876.365,1662.5
876.319,1661.25
876.273,1681.05
876.227,1666.3
876.181,1658.05
876.135,1677.4
876.089,1674.25
876.043,1657.45
875.997,1648.5
875.951,1652.75
875.905,1678.8
875.859,1671.25
875.813,1672.6
875.767,1681.25
875.721,1676.65
875.675,1663.55
875.629,1663.7
875.583,1663.5
875.537,1673
875.491,1688.7
875.445,1667.95
875.399,1650.3
875.352,1659.05
875.306,1662.15
875.26,1651.75
875.214,1669.35
875.168,1749.4
875.122,1645
875.076,1671.5
875.03,1669.95
874.984,1652.9
874.938,1677.8
874.892,1670.4
874.845,1690.85
874.799,1674
874.753,1675.9
874.707,1673.2
874.661,1670.95
874.615,1669.6
874.569,1664
874.523,1662.95
874.476,1663.3
874.43,1667.5
874.384,1659.15
874.338,1653.05
874.292,1657
874.246,1660.95
874.2,1656.75
874.153,1660.8
874.107,1665.25
874.061,1672.3
874.015,1659
873.969,1666.15
873.923,1665.7
873.876,1669
873.83,1674.05
873.784,1663.05
873.738,1666.75
873.692,1679.2
873.645,1669.9
873.599,1660.95
873.553,1669.8
873.507,1660.2
873.461,1664.35
873.414,1676.65
873.368,1673.3
873.322,1656.45
873.276,1668.35
873.23,1681
873.183,1669.9
873.137,1681.3
873.091,1678.6
873.045,1673.2
872.998,1683.8
872.952,1680.65
872.906,1693.9
872.86,1653.9
872.813,1769.6
872.767,1667.3
872.721,1674.55
872.675,1655.25
872.628,1681.7
872.582,1667.4
872.536,1666.25
872.489,1654.65
872.443,1671.3
872.397,1666.95
872.351,1656.35
872.304,1644.65
872.258,1665.15
872.212,1660.9
872.165,1668.4
872.119,1685.65
872.073,1676.35
872.026,1665.25
871.98,1663.55
871.934,1666.85
871.888,1651.75
871.841,1675.25
871.795,1668.2
871.749,1656.5
871.702,1665.5
871.656,1666.75
871.61,1662.5
871.563,1676.85
871.517,1658.95
871.47,1670.5
871.424,1674.7
871.378,1662.75
871.331,1681
871.285,1667.4
871.239,1700.45
871.192,1680
871.146,1690.05
871.099,1670.3
871.053,1670.35
871.007,1646.35
870.96,1666.85
870.914,1673.65
870.868,1657.85
870.821,1659.5
870.775,1647.55
870.728,1636.75
870.682,1670.85
870.636,1655.3
870.589,1679.95
870.543,1679.6
870.496,1653.9
870.45,1788.2
870.403,1676.85
870.357,1665.5
870.311,1661.8
870.264,1662.45
870.218,1649.3
870.171,1656.25
870.125,1656.25
870.078,1671.65
870.032,1654.35
869.985,1660.45
869.939,1680.65
869.892,1673.2
869.846,1683.85
869.799,1667.95
869.753,1675.15
869.707,1668.85
869.66,1668.2
869.614,1656.7
869.567,1647.8
869.521,1662.9
869.474,1659.85
869.428,1651.75
869.381,1651.05
869.335,1662.35
869.288,1663.8
869.242,1664.05
869.195,1662.75
869.148,1677.95
869.102,1661.2
869.055,1681.6
869.009,1657.65
868.962,1658.75
868.916,1667.55
868.869,1659.1
868.823,1663.45
868.776,1653.8
868.73,1677.75
868.683,1667.55
868.637,1663.75
868.59,1676.85
868.543,1684.45
868.497,1656.3
868.45,1657.3
868.404,1657.6
868.357,1687.2
868.311,1667
868.264,1675.9
868.217,1659.15
868.171,1685
868.124,1659.35
868.078,1738.8
868.031,1650.75
867.984,1643.75
867.938,1668.45
867.891,1645.3
867.845,1648.25
867.798,1664.75
867.751,1654.05
867.705,1663.95
867.658,1653.7
867.611,1666.15
867.565,1677.6
867.518,1678.7
867.471,1685.75
867.425,1674.3
867.378,1667.5
867.332,1674.95
867.285,1672.2
867.238,1670.85
867.192,1654.2
867.145,1674.6
867.098,1662.4
867.052,1669.2
867.005,1655.9
866.958,1674.2
866.911,1666.1
866.865,1686.9
866.818,1662.7
866.771,1669.6
866.725,1684.75
866.678,1671.25
866.631,1674.5
866.585,1667
866.538,1682.05
866.491,1664.05
866.444,1656.1
866.398,1665.6
866.351,1684.6
866.304,1680.9
866.258,1674.15
866.211,1656.15
866.164,1670.5
866.117,1670.1
866.071,1664.95
866.024,1655.35
865.977,1663.35
865.93,1684.4
865.884,1663.9
865.837,1672.7
865.79,1667.95
865.743,1678.05
865.697,1715.55
865.65,1668.9
865.603,1682.05
865.556,1677.85
865.509,1667.5
865.463,1664.85
865.416,1666.6
865.369,1664.45
865.322,1674.8
865.276,1658.6
865.229,1672.85
865.182,1661.45
865.135,1674.8
865.088,1667.6
865.041,1673.75
864.995,1663.55
864.948,1689.45
864.901,1671.15
864.854,1677.15
864.807,1666.4
864.761,1658.35
864.714,1664.85
864.667,1663.1
864.62,1663.2
864.573,1675.4
864.526,1669.75
864.479,1671.95
864.433,1688.65
864.386,1666.85
864.339,1672.7
864.292,1681.05
864.245,1684.75
864.198,1664.45
864.151,1689.65
864.104,1669.4
864.058,1683.4
864.011,1659.55
863.964,1656.4
863.917,1660.35
863.87,1674
863.823,1670.55
863.776,1663.15
863.729,1651.55
863.682,1660.15
863.635,1666.35
863.589,1675.7
863.542,1659.6
863.495,1672.75
863.448,1679.25
863.401,1650.9
863.354,1676.15
863.307,1738.2
863.26,1643.95
863.213,1665
863.166,1664.15
863.119,1657.05
863.072,1655.35
863.025,1646.9
862.978,1675.45
862.931,1650.7
862.884,1670.65
862.837,1654.35
862.79,1653.05
862.743,1680.8
862.696,1678.35
862.649,1671.15
862.602,1663.35
862.555,1673.25
862.508,1662.75
862.461,1665.15
862.414,1675.75
862.367,1656.7
862.32,1655.3
862.273,1670.8
862.226,1670.05
862.179,1682.95
862.132,1679.4
862.085,1660.35
862.038,1653.1
861.991,1656.5
861.944,1638.6
861.897,1674.6
861.85,1668.95
861.803,1665.65
861.756,1682.45
861.709,1668.55
861.662,1669.2
861.615,1671.65
861.568,1669
861.521,1688
861.474,1652.45
861.427,1656.9
861.38,1670.55
861.332,1662.7
861.285,1638.2
861.238,1669
861.191,1666.45
861.144,1655.6
861.097,1669.15
861.05,1683
861.003,1668.4
860.956,1658.05
860.909,1722.2
860.861,1635.55
860.814,1665
860.767,1650.65
860.72,1657.05
860.673,1656.65
860.626,1668
860.579,1672.85
860.532,1659.8
860.484,1682.8
860.437,1677.6
860.39,1678.85
860.343,1681.85
860.296,1658.65
860.249,1661.5
860.202,1670.45
860.154,1665.15
860.107,1649.2
860.06,1666.15
860.013,1669.05
859.966,1657.65
859.919,1633.95
859.871,1667.25
859.824,1681.65
859.777,1662.1
859.73,1672.1
859.683,1654.75
859.635,1682.5
859.588,1665.3
859.541,1669.95
859.494,1668.15
859.447,1674.1
859.399,1666
859.352,1668.1
859.305,1670
859.258,1670.65
859.21,1662.1
859.163,1677.4
859.116,1667.2
859.069,1654.5
859.021,1670.95
858.974,1673.45
858.927,1659
858.88,1671.45
858.832,1649.5
858.785,1665.2
858.738,1657.85
858.691,1676.3
858.643,1674.6
858.596,1675.2
858.549,1655.85
858.502,1735.2
858.454,1658.85
858.407,1663.05
858.36,1643.5
858.312,1652.65
858.265,1674.7
858.218,1660.85
858.171,1660.95
858.123,1672.3
858.076,1651.05
858.029,1666.75
857.981,1674.45
857.934,1679.4
857.887,1683.75
857.839,1681.55
857.792,1657.05
857.745,1660.85
857.697,1657.65
857.65,1674.95
857.603,1678.05
857.555,1681.65
857.508,1674.45
857.461,1672.75
857.413,1658.5
857.366,1675.6
857.319,1670.2
857.271,1664.35
857.224,1653.7
857.176,1679.2
857.129,1668
857.082,1656.15
857.034,1679.1
856.987,1689.1
856.94,1659.55
856.892,1673.55
856.845,1672.6
856.797,1682.4
856.75,1684.55
856.703,1665.95
856.655,1669.15
856.608,1666.8
856.56,1641.2
856.513,1650.1
856.465,1654.85
856.418,1646.55
856.371,1660.8
856.323,1667.65
856.276,1651.8
856.228,1671.55
856.181,1675.05
856.133,1656.25
856.086,1697.75
856.039,1658.3
855.991,1677.9
855.944,1657.2
855.896,1664.8
855.849,1671.95
855.801,1674.9
855.754,1682.15
855.706,1686.6
855.659,1688.05
855.611,1673.1
855.564,1671
855.516,1679.5
855.469,1677.75
855.421,1663.15
855.374,1684.65
855.326,1652.3
855.279,1672
855.231,1659.75
855.184,1671.65
855.136,1653.3
855.089,1658.1
855.041,1685.1
854.994,1679.55
854.946,1661.4
854.899,1671.25
854.851,1670.9
854.804,1678
854.756,1673.15
854.709,1676.8
854.661,1662.05
854.613,1679.6
854.566,1656.45
854.518,1680.6
854.471,1651.35
854.423,1684.6
854.376,1677.6
854.328,1668.85
854.28,1659.65
854.233,1671.2
854.185,1675.15
854.138,1664.75
854.09,1689.65
854.043,1680.85
853.995,1663.1
853.947,1667
853.9,1681.6
853.852,1671.5
853.805,1670.85
853.757,1658.55
853.709,1678.6
853.662,1646.8
853.614,1676
853.566,1648.35
853.519,1648.8
853.471,1666.85
853.424,1676.3
853.376,1671.15
853.328,1674.4
853.281,1669.15
853.233,1665.7
853.185,1669.25
853.138,1694.05
853.09,1682.9
853.042,1666.9
852.995,1657.35
852.947,1676.2
852.899,1680.05
852.852,1675.25
852.804,1678.35
852.756,1673.6
852.709,1675.9
852.661,1669.65
852.613,1670.95
852.566,1671.05
852.518,1673.3
852.47,1665.2
852.422,1666.6
852.375,1663.9
852.327,1663.95
852.279,1671.2
852.232,1663.3
852.184,1680.05
852.136,1674.45
852.088,1670.3
852.041,1670.6
851.993,1682.15
851.945,1683.3
851.897,1666.1
851.85,1678.05
851.802,1661
851.754,1675.65
851.706,1672.45
851.659,1667.95
851.611,1687.4
851.563,1667.7
851.515,1669.2
851.468,1672.9
851.42,1665.8
851.372,1653.2
851.324,1666.55
851.277,1696.8
851.229,1662.5
851.181,1686.65
851.133,1669.8
851.085,1665.4
851.038,1685.1
850.99,1672.2
850.942,1655.8
850.894,1675.35
850.846,1650.75
850.799,1677.85
850.751,1652.2
850.703,1677.1
850.655,1690.3
850.607,1664.8
850.559,1659.6
850.512,1690.05
850.464,1675.25
850.416,1674.2
850.368,1668.8
850.32,1673.35
850.272,1673.45
850.224,1678.35
850.177,1660.4
850.129,1666.65
850.081,1665
850.033,1677.85
849.985,1681.4
849.937,1670.25
849.889,1670
849.842,1653.1
849.794,1671.35
849.746,1675.2
849.698,1667.2
849.65,1672.8
849.602,1675.3
849.554,1663.9
849.506,1666.95
849.458,1690.95
849.41,1677.15
849.363,1694.25
849.315,1659.65
849.267,1672.3
849.219,1659.75
849.171,1686.65
849.123,1657.35
849.075,1666.95
849.027,1684.4
848.979,1680.75
848.931,1663.2
848.883,1657.75
848.835,1646.3
848.787,1671.35
848.739,1660.55
848.691,1658.6
848.643,1652.2
848.595,1675.9
848.547,1658.45
848.499,1665.05
848.452,1684.5
848.404,1681.6
848.356,1673.3
848.308,1661.4
848.26,1696.45
848.212,1678.15
848.164,1673.95
848.116,1667.75
848.068,1664.55
848.02,1683.3
847.972,1647.9
847.924,1672.8
847.876,1665.4
847.827,1661.45
847.779,1670.3
847.731,1661
847.683,1658.8
847.635,1678.35
847.587,1667.15
847.539,1683.4
847.491,1678.8
847.443,1688.15
847.395,1673.35
847.347,1670.75
847.299,1676.8
847.251,1665.25
847.203,1679.65
847.155,1675.1
847.107,1652.8
847.059,1694.25
847.011,1666.7
846.963,1660.9
846.914,1659.7
846.866,1672.9
846.818,1667.65
846.77,1680.65
846.722,1671.85
846.674,1647.25
846.626,1649.25
846.578,1675.1
846.53,1659.2
846.482,1676.55
846.433,1679.25
846.385,1660.8
846.337,1700.1
846.289,1684
846.241,1656.45
846.193,1648.15
846.145,1657.95
846.097,1678.8
846.048,1664.3
846,1668.8
845.952,1679.15
845.904,1654.35
845.856,1680.75
845.808,1667.7
845.759,1665.6
845.711,1667.1
845.663,1670.2
845.615,1676.65
845.567,1653.05
845.519,1668.35
845.47,1654.1
845.422,1672.4
845.374,1667.7
845.326,1663.55
845.278,1668.35
845.229,1668.6
845.181,1638.5
845.133,1677.4
845.085,1663.35
845.037,1681.6
844.988,1660.9
844.94,1679.55
844.892,1680.35
844.844,1677
844.795,1679.95
844.747,1659.85
844.699,1663
844.651,1691.8
844.603,1668.45
844.554,1678.1
844.506,1652.3
844.458,1672.8
844.41,1641.95
844.361,1665.4
844.313,1669.2
844.265,1670.85
844.216,1666.8
844.168,1672.2
844.12,1678.15
844.072,1681.1
844.023,1670.25
843.975,1670.35
843.927,1655.85
843.879,1675.45
843.83,1645.65
843.782,1644.85
843.734,1665.9
843.685,1660.2
843.637,1655.9
843.589,1657.35
843.54,1665.2
843.492,1666
843.444,1657.9
843.395,1680.8
843.347,1670.1
843.299,1665.2
843.25,1684.35
843.202,1654.65
843.154,1659.8
843.105,1675.9
843.057,1685.05
843.009,1661.35
842.96,1676.6
842.912,1660.2
842.864,1660.85
842.815,1656.6
842.767,1674.3
842.719,1676.75
842.67,1651.3
842.622,1667.75
842.573,1676.5
842.525,1674.75
842.477,1660.1
842.428,1681.25
842.38,1639.55
842.331,1671.9
842.283,1668.35
842.235,1671.7
842.186,1655.9
842.138,1649.1
842.089,1674.9
842.041,1675.05
841.993,1655.25
841.944,1658.75
841.896,1665.5
841.847,1671.15
841.799,1651.8
841.75,1645.9
841.702,1641
841.654,1678.15
841.605,1667.45
841.557,1680.9
841.508,1694.1
841.46,1658.3
841.411,1637.6
841.363,1645.5
841.314,1659.95
841.266,1667.35
841.217,1657.75
841.169,1667.65
841.12,1671
841.072,1650
841.023,1680.8
840.975,1648.35
840.927,1669.05
840.878,1662.7
840.83,1676.8
840.781,1670.3
840.733,1687.5
840.684,1667.45
840.635,1669.1
840.587,1665.2
840.538,1664.95
840.49,1657
840.441,1648.55
840.393,1671.25
840.344,1673.4
840.296,1659.65
840.247,1682.3
840.199,1676.65
840.15,1657.85
840.102,1674.5
840.053,1680.6
840.005,1668.15
839.956,1667.25
839.907,1651.2
839.859,1670.3
839.81,1663.45
839.762,1662.3
839.713,1680.15
839.665,1662.25
839.616,1658.15
839.567,1679.15
839.519,1672.2
839.47,1667.85
839.422,1667.7
839.373,1673.5
839.324,1687.65
839.276,1665.65
839.227,1664.4
839.179,1649
839.13,1668.45
839.081,1677.3
839.033,1668.95
838.984,1642.75
838.935,1668.6
838.887,1694.6
838.838,1646.5
838.79,1672.85
838.741,1677.05
838.692,1660.1
838.644,1659.85
838.595,1668.8
838.546,1673.05
838.498,1672.9
838.449,1669.75
838.4,1655.95
838.352,1679.45
838.303,1666.2
838.254,1664.65
838.206,1644.7
838.157,1682.7
838.108,1660.85
838.06,1659.3
838.011,1652.3
837.962,1658.8
837.914,1667.6
837.865,1664.9
837.816,1692.85
837.767,1668.6
837.719,1681.85
837.67,1677.85
837.621,1690.45
837.573,1677.45
837.524,1684.3
837.475,1671.3
837.426,1687.25
837.378,1670.1
837.329,1665.6
837.28,1647
837.231,1662.4
837.183,1672.85
837.134,1659.45
837.085,1676
837.036,1658
836.988,1674.25
836.939,1659.1
836.89,1673.25
836.841,1670.45
836.793,1676.75
836.744,1669.55
836.695,1683.8
836.646,1666.15
836.598,1669
836.549,1688.65
836.5,1694.65
836.451,1649.15
836.402,1714.5
836.354,1644.9
836.305,1646.2
836.256,1661.25
836.207,1657.3
836.158,1675.25
836.11,1670.05
836.061,1663.2
836.012,1658
835.963,1675.05
835.914,1684.8
835.865,1677.45
835.817,1683.95
835.768,1682.4
835.719,1668.7
835.67,1673.1
835.621,1675.3
835.572,1682.25
835.523,1670
835.475,1683.05
835.426,1671.35
835.377,1653.25
835.328,1686.35
835.279,1660.25
835.23,1666.75
835.181,1664.8
835.133,1661.6
835.084,1678.6
835.035,1667.75
834.986,1660.05
834.937,1675.65
834.888,1662.6
834.839,1680
834.79,1667.45
834.741,1666.65
834.692,1671.85
834.643,1663.05
834.595,1655.65
834.546,1662.55
834.497,1665.4
834.448,1660.1
834.399,1677.35
834.35,1679.95
834.301,1653.45
834.252,1667.3
834.203,1672.75
834.154,1665
834.105,1641.35
834.056,1668.6
834.007,1675.7
833.958,1642.35
833.909,1686.2
833.86,1665.7
833.811,1656.9
833.762,1666.45
833.713,1661.15
833.665,1683.7
833.616,1677.3
833.567,1688.95
833.518,1685.8
833.469,1690.05
833.42,1684.05
833.371,1681.8
833.322,1678.85
833.273,1668.1
833.224,1661.65
833.175,1694.8
833.126,1658.5
833.076,1675.65
833.027,1659.65
832.978,1656.85
832.929,1656.35
832.88,1659.3
832.831,1680.85
832.782,1668.85
832.733,1659.95
832.684,1674.15
832.635,1659.95
832.586,1681.8
832.537,1672.15
832.488,1667.95
832.439,1674.75
832.39,1683.7
832.341,1678.5
832.292,1680.9
832.243,1668
832.194,1683.7
832.144,1679.9
832.095,1684.9
832.046,1665.75
831.997,1670.5
831.948,1657.65
831.899,1673.8
831.85,1675.25
831.801,1662.2
831.752,1686.15
831.703,1672.6
831.653,1674.7
831.604,1682.5
831.555,1664.75
831.506,1685.55
831.457,1706.25
831.408,1678.05
831.359,1663.05
831.31,1664.95
831.26,1654.8
831.211,1642
831.162,1685.2
831.113,1669.2
831.064,1697.65
831.015,1702.95
830.966,1678
830.916,1665.45
830.867,1676.5
830.818,1699.25
830.769,1666.85
830.72,1677.1
830.671,1676.9
830.621,1675.75
830.572,1656.65
830.523,1661.3
830.474,1669.6
830.425,1668.1
830.375,1651.9
830.326,1669.6
830.277,1677.2
830.228,1657.1
830.179,1666.75
830.129,1665.95
830.08,1658.3
830.031,1685.45
829.982,1669.05
829.932,1672.3
829.883,1657.55
829.834,1666.8
829.785,1659.55
829.735,1650.9
829.686,1651.75
829.637,1661.45
829.588,1647.2
829.538,1654.1
829.489,1658.7
829.44,1665.35
829.391,1650.05
829.341,1689.15
829.292,1666.75
829.243,1665.6
829.194,1670.4
829.144,1673.45
829.095,1684.05
829.046,1665.95
828.996,1669.45
828.947,1697.05
828.898,1648.3
828.849,1627.55
828.799,1653.65
828.75,1648.7
828.701,1655.5
828.651,1682.35
828.602,1666.75
828.553,1665.75
828.503,1666.8
828.454,1677.35
828.405,1666.85
828.355,1680
828.306,1660.95
828.257,1684.65
828.207,1656
828.158,1690.5
828.109,1665.45
828.059,1673.45
828.01,1672.35
827.961,1661.35
827.911,1668.05
827.862,1665.25
827.812,1657
827.763,1667.7
827.714,1668.9
827.664,1692.65
827.615,1691.5
827.566,1682.7
827.516,1674.95
827.467,1691
827.417,1686.1
827.368,1676.3
827.319,1685.2
827.269,1673.3
827.22,1662.75
827.17,1662.75
827.121,1640.05
827.072,1659
827.022,1671.6
826.973,1663.9
826.923,1666.65
826.874,1659.85
826.824,1667.15
826.775,1668.95
826.726,1667.65
826.676,1656.1
826.627,1682.15
826.577,1654.85
826.528,1660.95
826.478,1666.3
826.429,1670.8
826.379,1621
826.33,1660.1
826.28,1658.3
826.231,1656.15
826.181,1645.1
826.132,1658.4
826.083,1674.9
826.033,1671.15
825.984,1680.7
825.934,1671
825.885,1682.35
825.835,1668.75
825.786,1692.8
825.736,1664.05
825.687,1674.15
825.637,1655.75
825.588,1675.05
825.538,1656.15
825.488,1672.9
825.439,1656.8
825.389,1651.75
825.34,1662.7
825.29,1660.3
825.241,1664.55
825.191,1672.45
825.142,1679.1
825.092,1691
825.043,1688.5
824.993,1676.25
824.944,1687.7
824.894,1671.95
824.844,1677.5
824.795,1664.1
824.745,1671.7
824.696,1651.6
824.646,1674.6
824.597,1672.45
824.547,1654.5
824.497,1666.6
824.448,1654.8
824.398,1647.45
824.349,1661.25
824.299,1681.2
824.249,1669.15
824.2,1668.85
824.15,1660.45
824.101,1671.3
824.051,1671.1
824.001,1685.75
823.952,1692.85
823.902,1656
823.852,1638.8
823.803,1678.95
823.753,1670.2
823.704,1672.2
823.654,1672.75
823.604,1681.85
823.555,1672.8
823.505,1682.15
823.455,1666.05
823.406,1650.1
823.356,1659.5
823.306,1661.95
823.257,1669
823.207,1663.2
823.157,1697.1
823.108,1677.9
823.058,1664.65
823.008,1665.6
822.959,1666.2
822.909,1665.55
822.859,1666.9
822.809,1673.7
822.76,1667.8
822.71,1650.3
822.66,1672.7
822.611,1676.8
822.561,1669.4
822.511,1654.6
822.461,1661.7
822.412,1668.8
822.362,1668.65
822.312,1683.65
822.263,1677.6
822.213,1664
822.163,1664.55
822.113,1674.3
822.064,1676.05
822.014,1671.65
821.964,1681.95
821.914,1674.05
821.865,1650.85
821.815,1666.8
821.765,1668.1
821.715,1670.35
821.666,1670.4
821.616,1660.75
821.566,1683.2
821.516,1666.8
821.466,1656.55
821.417,1692.2
821.367,1639.6
821.317,1682.75
821.267,1629.4
821.217,1649.45
821.168,1660.3
821.118,1656.75
821.068,1656.85
821.018,1673.85
820.968,1659.35
820.919,1672.4
820.869,1661.95
820.819,1671.4
820.769,1685.6
820.719,1674.6
820.669,1682.8
820.62,1687.5
820.57,1664.9
820.52,1666.25
820.47,1657.7
820.42,1655.75
820.37,1659.9
820.32,1677.2
820.271,1655.2
820.221,1664.9
820.171,1671.5
820.121,1664.25
820.071,1678.95
820.021,1652.85
819.971,1668.25
819.921,1697.95
819.872,1678.75
819.822,1681.9
819.772,1681.9
819.722,1665.05
819.672,1665
819.622,1675.3
819.572,1678.9
819.522,1654.2
819.472,1659.7
819.422,1655.95
819.373,1666.5
819.323,1678.95
819.273,1673
819.223,1677.15
819.173,1686.6
819.123,1665.65
819.073,1694.15
819.023,1677.75
818.973,1670.35
818.923,1674.25
818.873,1662.9
818.823,1630.55
818.773,1662.7
818.723,1664.45
818.673,1671.5
818.623,1647.45
818.573,1674.35
818.523,1653.25
818.473,1663.4
818.423,1659.95
818.373,1684.35
818.323,1685.85
818.273,1690.9
818.223,1691.9
818.173,1662.6
818.123,1683.2
818.073,1676.15
818.023,1685
817.973,1671.2
817.923,1667.65
817.873,1677.55
817.823,1670.7
817.773,1640.5
817.723,1653.5
817.673,1655.25
817.623,1668.55
817.573,1639.2
817.523,1667.1
817.473,1664.95
817.423,1680.75
817.373,1673.1
817.323,1698.5
817.273,1691.85
817.223,1681.05
817.173,1672.75
817.123,1677.75
817.073,1664.85
817.023,1672.8
816.972,1668.8
816.922,1665.6
816.872,1654.1
816.822,1663.2
816.772,1665.85
816.722,1675.6
816.672,1657.25
816.622,1661.65
816.572,1663.55
816.522,1676.45
816.472,1678.1
816.421,1680.15
816.371,1675.3
816.321,1650.2
816.271,1695.5
816.221,1670.9
816.171,1666.1
816.121,1670.4
816.071,1662.9
816.02,1666.85
815.97,1692.45
815.92,1686.45
815.87,1661.4
815.82,1668.5
815.77,1668.55
815.72,1662.1
815.669,1662.6
815.619,1673.7
815.569,1659.8
815.519,1674.4
815.469,1664.6
815.419,1667.85
815.368,1664.2
815.318,1675.4
815.268,1701.1
815.218,1684.6
815.168,1668.65
815.117,1668.9
815.067,1673.45
815.017,1674.05
814.967,1665.9
814.917,1655.15
814.866,1673.9
814.816,1662.05
814.766,1681.05
814.716,1669.15
814.665,1677.6
814.615,1662.5
814.565,1668.85
814.515,1653.35
814.465,1669.05
814.414,1673.45
814.364,1663.1
814.314,1676.45
814.264,1664.7
814.213,1646.8
814.163,1662.9
814.113,1667.4
814.063,1659.45
814.012,1669.85
813.962,1669.95
813.912,1687
813.861,1681.15
813.811,1674.2
813.761,1672.1
813.711,1657
813.66,1649.5
813.61,1653.1
813.56,1661
813.509,1641.25
813.459,1668.2
813.409,1658.7
813.358,1676.65
813.308,1665.9
813.258,1671.75
813.208,1672.7
813.157,1663.55
813.107,1686.7
813.057,1672.65
813.006,1686.05
812.956,1665.75
812.906,1672.45
812.855,1663.45
812.805,1673.45
812.755,1676.95
812.704,1659.65
812.654,1664.6
812.603,1664
812.553,1667.05
812.503,1678.45
812.452,1668.85
812.402,1671.25
812.352,1658.7
812.301,1670.45
812.251,1663.55
812.2,1679.7
812.15,1672.2
812.1,1663.4
812.049,1675.85
811.999,1673.9
811.949,1651.9
811.898,1675.5
811.848,1671.35
811.797,1686.95
811.747,1660.75
811.696,1672.4
811.646,1661.55
811.596,1671.5
811.545,1678.45
811.495,1669.3
811.444,1650.55
811.394,1690.65
811.343,1683.45
811.293,1676
811.243,1658.8
811.192,1667.5
811.142,1657.85
811.091,1655.75
811.041,1644.35
810.99,1664.75
810.94,1643.95
810.889,1659.95
810.839,1648.95
810.788,1670.55
810.738,1672.1
810.688,1669.65
810.637,1676.15
810.587,1676.55
810.536,1686.35
810.486,1652.15
810.435,1675.45
810.385,1666.3
810.334,1681
810.284,1687.25
810.233,1683.4
810.183,1687
810.132,1662.1
810.081,1655.55
810.031,1664.5
809.98,1655.25
809.93,1657.15
809.879,1667.4
809.829,1658.7
809.778,1669.2
809.728,1648.55
809.677,1656.2
809.627,1661.2
809.576,1677.7
809.526,1650.1
809.475,1671.1
809.424,1674.85
809.374,1683.3
809.323,1687.65
809.273,1666.15
809.222,1674.2
809.172,1684.35
809.121,1660.7
809.07,1660.9
809.02,1676.65
808.969,1652.15
808.919,1655.65
808.868,1673.5
808.817,1662.5
808.767,1665.9
808.716,1676
808.666,1665.85
808.615,1675.55
808.564,1713.1
808.514,1658.2
808.463,1662.1
808.413,1659.55
808.362,1681.35
808.311,1654.1
808.261,1645.75
808.21,1682.35
808.159,1672.7
808.109,1676.6
808.058,1664
808.007,1674.4
807.957,1671.3
807.906,1674.25
807.855,1660.55
807.805,1670.2
807.754,1673
807.703,1672.9
807.653,1667.85
807.602,1674.75
807.551,1656.75
807.501,1652.9
807.45,1683
807.399,1687.65
807.349,1664.45
807.298,1680.55
807.247,1670
807.197,1642.7
807.146,1678.15
807.095,1667.55
807.044,1675.85
806.994,1658.55
806.943,1666.55
806.892,1670.4
806.842,1674.55
806.791,1657.7
806.74,1684.8
806.689,1655.75
806.639,1673.15
806.588,1687.4
806.537,1669.3
806.486,1660.7
806.436,1696.95
806.385,1679.85
806.334,1678.85
806.283,1671.45
806.233,1677.7
806.182,1658.85
806.131,1667.15
806.08,1676
806.03,1688.4
805.979,1660.25
805.928,1663.6
805.877,1647.35
805.826,1658.1
805.776,1675.3
805.725,1651.05
805.674,1667.05
805.623,1675.1
805.572,1668.85
805.522,1718.55
805.471,1681.2
805.42,1687.6
805.369,1701.35
805.318,1678.35
805.268,1676.9
805.217,1644.2
805.166,1674.2
805.115,1668.05
805.064,1645.5
805.013,1651.7
804.963,1659.35
804.912,1666.8
804.861,1659.5
804.81,1668.35
804.759,1663.2
804.708,1661.8
804.657,1653.95
804.607,1667.15
804.556,1694.2
804.505,1677.9
804.454,1687.15
804.403,1676.1
804.352,1686.2
804.301,1647.9
804.25,1666.7
804.2,1653.15
804.149,1677.4
804.098,1667.8
804.047,1660.15
803.996,1674.55
803.945,1682.5
803.894,1677.95
803.843,1670.5
803.792,1696.9
803.741,1680.25
803.69,1676.15
803.64,1673.9
803.589,1671.05
803.538,1679
803.487,1665.25
803.436,1625.45
803.385,1645.95
803.334,1673.55
803.283,1663.5
803.232,1657.5
803.181,1654.15
803.13,1641.95
803.079,1664.35
803.028,1681.6
802.977,1680.25
802.926,1676.1
802.875,1659.75
802.824,1673.65
802.773,1676.2
802.722,1686.75
802.671,1671.85
802.62,1672.25
802.569,1670.15
802.518,1650.45
802.467,1659
802.416,1672.15
802.365,1661.8
802.314,1658.95
802.263,1647.1
802.212,1669.9
802.161,1672.5
802.11,1674.4
802.059,1680.55
802.008,1670.65
801.957,1681.8
801.906,1672.9
801.855,1670.4
801.804,1663.05
801.753,1671.4
801.702,1670.5
801.651,1669.75
801.6,1671
801.549,1665.15
801.498,1659.55
801.447,1684.9
801.396,1658.65
801.345,1656.85
801.293,1664.1
801.242,1674.05
801.191,1682.3
801.14,1679
801.089,1671.35
801.038,1669.5
800.987,1664.6
800.936,1692.65
800.885,1673.9
800.834,1647.5
800.783,1668.35
800.731,1669.3
800.68,1658.5
800.629,1662.95
800.578,1654.55
800.527,1677.15
800.476,1673.7
800.425,1671.55
800.374,1681.1
800.322,1676
800.271,1660.95
800.22,1676.7
800.169,1681.55
800.118,1680.95
800.067,1661.7
800.016,1674.4
799.964,1691.7
799.913,1657.45
799.862,1675.2
799.811,1664.8
799.76,1654.3
799.709,1649.75
799.657,1642.55
799.606,1657
799.555,1668.7
799.504,1669.3
799.453,1656.85
799.401,1684.6
799.35,1676.9
799.299,1671.35
799.248,1668.05
799.197,1676.5
799.145,1672.45
799.094,1689.75
799.043,1677.05
798.992,1669.2
798.941,1679.8
798.889,1657.9
798.838,1668.15
798.787,1656.5
798.736,1671.8
798.684,1669.4
798.633,1677.35
798.582,1677.7
798.531,1696.05
798.479,1673.1
798.428,1677.6
798.377,1697.9
798.326,1667.5
798.274,1673.8
798.223,1683.65
798.172,1706.5
798.121,1657.15
798.069,1644.1
798.018,1660.15
797.967,1649.8
797.915,1660.8
797.864,1675
797.813,1656.75
797.762,1663.75
797.71,1661.9
797.659,1675.7
797.608,1679.5
797.556,1694.7
797.505,1670.75
797.454,1691.25
797.402,1664.95
797.351,1654.55
797.3,1660.55
797.248,1656.5
797.197,1649.8
797.146,1659.55
797.094,1661.05
797.043,1646.55
796.992,1652.2
796.94,1664.15
796.889,1629.6
796.838,1675.75
796.786,1660.85
796.735,1676.8
796.684,1668.2
796.632,1677.7
796.581,1668.65
796.53,1683.85
796.478,1671.75
796.427,1673.85
796.375,1670.1
796.324,1672.9
796.273,1665.35
796.221,1667.55
796.17,1669.1
796.119,1678.8
796.067,1666.35
796.016,1679.1
795.964,1660.35
795.913,1669.1
795.861,1672.2
795.81,1664.5
795.759,1660
795.707,1670.65
795.656,1664.8
795.604,1662.55
795.553,1690.45
795.501,1651.05
795.45,1666.6
795.399,1654.9
795.347,1677.65
795.296,1677.75
795.244,1690.7
795.193,1663.9
795.141,1666.55
795.09,1670.9
795.038,1669.85
794.987,1686.05
794.936,1670.85
794.884,1668.6
794.833,1669.2
794.781,1670.4
794.73,1657.7
794.678,1662.75
794.627,1677.45
794.575,1651.5
794.524,1676.95
794.472,1692.4
794.421,1677.65
794.369,1673.85
794.318,1680.35
794.266,1675.6
794.215,1665.8
794.163,1685.1
794.112,1670.7
794.06,1678.6
794.008,1668.7
793.957,1680
793.905,1665.8
793.854,1658.75
793.802,1670.35
793.751,1659.75
793.699,1669.2
793.648,1661.1
793.596,1674.3
793.545,1665.85
793.493,1668.35
793.441,1686.2
793.39,1671.5
793.338,1676.8
793.287,1672.3
793.235,1665.45
793.184,1667.55
793.132,1683.05
793.08,1665.5
793.029,1663.25
792.977,1669.15
792.926,1643.25
792.874,1643.05
792.822,1648.75
792.771,1656.1
792.719,1658.75
792.668,1664.05
792.616,1666.55
792.564,1668.35
792.513,1664.85
792.461,1677.5
792.41,1678.5
792.358,1673.85
792.306,1684.5
792.255,1680.15
792.203,1677.55
792.151,1672.65
792.1,1671.3
792.048,1671.25
791.996,1654.3
791.945,1672.45
791.893,1679.55
791.841,1677.7
791.79,1661.75
791.738,1680.1
791.686,1657.75
791.635,1662.55
791.583,1667.25
791.531,1682.1
791.48,1674.15
791.428,1666.7
791.376,1665.2
791.325,1677.6
791.273,1680.55
791.221,1693.25
791.17,1671.1
791.118,1673
791.066,1670.7
791.014,1673.25
790.963,1666.35
790.911,1667.15
790.859,1671.3
790.808,1661.15
790.756,1691.25
790.704,1670.35
790.652,1678.9
790.601,1672
790.549,1685.15
790.497,1674.65
790.445,1650.3
790.394,1687.15
790.342,1680.35
790.29,1640.6
790.238,1674
790.187,1649
790.135,1666
790.083,1646.7
790.031,1674.6
789.98,1672.3
789.928,1672.35
789.876,1668.5
789.824,1697.8
789.772,1683.25
789.721,1682.6
789.669,1693.35
789.617,1696
789.565,1673.5
789.513,1689.15
789.462,1706.6
789.41,1682.8
789.358,1675.3
789.306,1702.05
789.254,1689.45
789.203,1680.95
789.151,1667.7
789.099,1686.45
789.047,1674.3
788.995,1682.45
788.943,1683.15
788.892,1684.1
788.84,1693.7
788.788,1687.45
788.736,1688.4
788.684,1695.3
788.632,1698.35
788.58,1691.45
788.529,1683.85
788.477,1682.05
788.425,1738.05
788.373,1899.25
788.321,3775.5
788.269,5900.35
788.217,3034.35
788.165,2533.4
788.114,2321.65
788.062,2766.45
788.01,3207.85
787.958,2387.75
787.906,2301.45
787.854,2143.1
787.802,2039
787.75,1913.25
787.698,1841.25
787.646,1811.75
787.594,1783.2
787.543,1757.75
787.491,1731.3
787.439,1689.9
787.387,1678.05
787.335,1684.3
787.283,1690.55
787.231,1688.85
787.179,1693.1
787.127,1692.45
787.075,1691.6
787.023,1674.45
786.971,1701.45
786.919,1678.6
786.867,1685.5
786.815,1691.25
786.763,1701.7
786.711,1684.25
786.659,1669.65
786.607,1663.05
786.555,1689.95
786.503,1687.2
786.451,1667.95
786.399,1688.95
786.347,1678.1
786.295,1688.05
786.243,1703.3
786.191,1678.25
786.139,1683.35
786.087,1693.85
786.035,1674.15
785.983,1681.5
785.931,1659.75
785.879,1674.8
785.827,1658.55
785.775,1673.95
785.723,1695.6
785.671,1682.55
785.619,1689.5
785.567,1691.1
785.515,1693.5
785.463,1709.6
785.411,1688.9
785.359,1687.4
785.307,1685.25
785.255,1704
785.203,1677.15
785.151,1684.05
785.099,1684.25
785.046,1649.9
784.994,1659.95
784.942,1673.1
784.89,1663.45
784.838,1667.4
784.786,1663.65
784.734,1667.05
784.682,1664.95
784.63,1671.7
784.578,1671.9
784.525,1678.9
784.473,1689.5
784.421,1672.65
784.369,1689.1
784.317,1684.8
784.265,1679.75
784.213,1691.2
784.161,1689.15
784.109,1667.8
784.056,1651.7
784.004,1659.6
783.952,1654.55
783.9,1644.05
783.848,1658.3
783.796,1662.9
783.743,1666.2
783.691,1679.8
783.639,1673.1
783.587,1675.05
783.535,1673.55
783.483,1688.35
783.43,1685.75
783.378,1681.25
783.326,1694.15
783.274,1684.5
783.222,1671.2
783.17,1680.15
783.117,1678.8
783.065,1656.55
783.013,1667.25
782.961,1665.3
782.909,1670.5
782.856,1666.95
782.804,1660.35
782.752,1679.6
782.7,1675.85
782.647,1668.75
782.595,1671
782.543,1683.45
782.491,1646.25
782.439,1680.15
782.386,1657.8
782.334,1678.6
782.282,1671.8
782.23,1661.5
782.177,1669.6
782.125,1676.1
782.073,1655.45
782.021,1665.25
781.968,1665.6
781.916,1659.65
781.864,1668.85
781.811,1687.75
781.759,1683.4
781.707,1677.9
781.655,1676.5
781.602,1680.95
781.55,1663.75
781.498,1641.5
781.445,1660.75
781.393,1674.15
781.341,1658.45
781.289,1668.2
781.236,1653.65
781.184,1679.45
781.132,1669.95
781.079,1674.25
781.027,1671.15
780.975,1670.8
780.922,1685.7
780.87,1674.25
780.818,1671.4
780.765,1675.5
780.713,1672.35
780.661,1658
780.608,1671.55
780.556,1682.55
780.504,1672.5
780.451,1668.1
780.399,1667.25
780.347,1672.8
780.294,1666.5
780.242,1641.45
780.189,1652.7
780.137,1654.9
780.085,1671.35
780.032,1673.35
779.98,1673.7
779.928,1672.05
779.875,1672.15
779.823,1682.6
779.77,1677.4
779.718,1679.1
779.666,1649.75
779.613,1655.25
779.561,1657.85
779.508,1664.75
779.456,1663.75
779.404,1666.6
779.351,1675.7
779.299,1672.65
779.246,1674.6
779.194,1669.2
779.141,1657.9
779.089,1688.7
779.037,1672.5
778.984,1658.6
778.932,1676.15
778.879,1667.25
778.827,1686.55
778.774,1685.55
778.722,1685.3
778.669,1672.6
778.617,1677.9
778.564,1662.3
778.512,1662.55
778.459,1645.15
778.407,1666.45
778.354,1664
778.302,1676.85
778.25,1684.7
778.197,1674.7
778.145,1677.6
778.092,1676
778.04,1700.65
777.987,1695
777.935,1693.95
777.882,1669.95
777.83,1679.4
777.777,1665.25
777.724,1670.35
777.672,1676.45
777.619,1675.35
777.567,1672.75
777.514,1646.6
777.462,1676.65
777.409,1684.6
777.357,1689.75
777.304,1676.65
777.252,1671.8
777.199,1684.05
777.147,1668.5
777.094,1670.95
777.041,1674.55
776.989,1629.35
776.936,1643.9
776.884,1680.3
776.831,1657.35
776.779,1659.7
776.726,1654.6
776.673,1664
776.621,1661.8
776.568,1685.85
776.516,1704.05
776.463,1670.85
776.41,1683.5
776.358,1684.4
776.305,1683.9
776.253,1684.65
776.2,1661.6
776.147,1675.8
776.095,1652.25
776.042,1679.45
775.99,1664.55
775.937,1653.5
775.884,1644.15
775.832,1664.35
775.779,1674.85
775.726,1662.55
775.674,1645.2
775.621,1650
775.568,1670.95
775.516,1670.65
775.463,1667.95
775.411,1653.35
775.358,1682.25
775.305,1656.85
775.253,1690.45
775.2,1670
775.147,1666.4
775.094,1679.65
775.042,1660.6
774.989,1660.35
774.936,1663.35
774.884,1682.8
774.831,1668.35
774.778,1670.3
774.726,1659.1
774.673,1675.05
774.62,1668.15
774.568,1678.55
774.515,1680.65
774.462,1672.7
774.409,1659.25
774.357,1670.5
774.304,1654.05
774.251,1665.75
774.199,1670.75
774.146,1647.45
774.093,1655.5
774.04,1649
773.988,1654.85
773.935,1666.7
773.882,1665.2
773.829,1659.55
773.777,1661.95
773.724,1688.45
773.671,1686.35
773.618,1686.2
773.566,1679.6
773.513,1671.5
773.46,1678.95
773.407,1680
773.354,1659.7
773.302,1679.15
773.249,1657.9
773.196,1669.9
773.143,1650.4
773.09,1656.05
773.038,1649.9
772.985,1666.45
772.932,1661.5
772.879,1668.15
772.826,1667.2
772.774,1670.8
772.721,1665.85
772.668,1671.35
772.615,1660.3
772.562,1687.25
772.509,1669.9
772.457,1683.3
772.404,1653.75
772.351,1641.45
772.298,1651.25
772.245,1671.5
772.192,1660.6
772.14,1668.15
772.087,1676.75
772.034,1677.3
771.981,1643.2
771.928,1675.5
771.875,1680.7
771.822,1666.4
771.77,1673.9
771.717,1681.4
771.664,1655.85
771.611,1676.5
771.558,1648.05
771.505,1667.05
771.452,1653.75
771.399,1659.2
771.346,1657.85
771.294,1687.9
771.241,1653.3
771.188,1667.2
771.135,1661.65
771.082,1673.5
771.029,1675.2
770.976,1691.25
770.923,1678.55
770.87,1660.5
770.817,1674.85
770.764,1680.05
770.711,1663.9
770.658,1662.6
770.605,1660.65
770.553,1662
770.5,1632.95
770.447,1663.6
770.394,1647.05
770.341,1662.7
770.288,1664.2
770.235,1661.05
770.182,1660.5
770.129,1668.65
770.076,1671.85
770.023,1664.1
769.97,1667.25
769.917,1666.7
769.864,1659.35
769.811,1679.35
769.758,1669.9
769.705,1671.55
769.652,1647.7
769.599,1666.4
769.546,1666.15
769.493,1671.55
769.44,1659.75
769.387,1659.2
769.334,1654.1
769.281,1671.95
769.228,1666.15
769.175,1692.1
769.122,1659.8
769.069,1671.9
769.016,1664.65
768.963,1665.85
768.91,1679.5
768.857,1677.05
768.804,1644.9
768.75,1652.7
768.697,1652.25
768.644,1662.45
768.591,1664.2
768.538,1681.95
768.485,1659
768.432,1675.8
768.379,1680.75
768.326,1695.3
768.273,1660.35
768.22,1681.45
768.167,1679.7
768.114,1680.45
768.061,1683.6
768.007,1667.6
767.954,1657.9
767.901,1652.4
767.848,1657.3
767.795,1654.55
767.742,1677.8
767.689,1679.5
767.636,1659.2
767.583,1671.35
767.529,1664.65
767.476,1666.3
767.423,1653.5
767.37,1681.9
767.317,1671
767.264,1675.5
767.211,1684.9
767.157,1658.25
767.104,1680.3
767.051,1676.3
766.998,1668.3
766.945,1676.55
766.892,1652.5
766.838,1668.25
766.785,1671.5
766.732,1673.9
766.679,1671.9
766.626,1690.5
766.573,1679.7
766.519,1676.8
766.466,1643.3
766.413,1672.2
766.36,1678
766.307,1653.2
766.253,1689.6
766.2,1660.15
766.147,1652.05
766.094,1654.55
766.041,1655.7
765.987,1669.3
765.934,1669.65
765.881,1647.05
765.828,1669.7
765.775,1681.15
765.721,1688.75
765.668,1659.15
765.615,1695.05
765.562,1687.1
765.508,1681.1
765.455,1692.8
765.402,1658.95
765.349,1666.55
765.295,1676.45
765.242,1670.1
765.189,1656.85
765.136,1658.3
765.082,1648.7
765.029,1652.2
764.976,1669.7
764.922,1656.15
764.869,1653.05
764.816,1665.35
764.763,1675.35
764.709,1677.85
764.656,1680.55
764.603,1686.55
764.549,1681.35
764.496,1669.55
764.443,1661.45
764.389,1682.2
764.336,1678.8
764.283,1668.3
764.23,1649.55
764.176,1655.2
764.123,1648.25
764.07,1672.25
764.016,1671
763.963,1653.6
763.91,1668.35
763.856,1654.6
763.803,1659.7
763.749,1655.3
763.696,1677.25
763.643,1689.2
763.589,1693.85
763.536,1680.05
763.483,1674.4
763.429,1640.7
763.376,1656.95
763.323,1658.15
763.269,1663.5
763.216,1641.1
763.162,1667.25
763.109,1661.65
763.056,1664.95
763.002,1672.6
762.949,1666.7
762.896,1674.4
762.842,1669.9
762.789,1693.45
762.735,1671.85
762.682,1665.8
762.628,1681.3
762.575,1670.05
762.522,1670.15
762.468,1660.05
762.415,1690.7
762.361,1641.35
762.308,1656.25
762.254,1661.7
762.201,1654.95
762.148,1665.2
762.094,1674.1
762.041,1676.2
761.987,1689.95
761.934,1677.9
761.88,1665.85
761.827,1672.7
761.773,1677.55
761.72,1687.3
761.667,1669.8
761.613,1674.55
761.56,1664.05
761.506,1669.65
761.453,1677.9
761.399,1677.25
761.346,1673.55
761.292,1660.75
761.239,1658.9
761.185,1650.35
761.132,1656.65
761.078,1658.55
761.025,1663.7
760.971,1684.7
760.918,1672.55
760.864,1681.3
760.811,1652.75
760.757,1618.3
760.704,1641.4
760.65,1651.6
760.596,1663.9
760.543,1653.75
760.489,1665
760.436,1676.15
760.382,1646.55
760.329,1664.65
760.275,1667.45
760.222,1674.7
760.168,1673.9
760.115,1686.05
760.061,1667.25
760.007,1669.75
759.954,1677.45
759.9,1687
759.847,1681.05
759.793,1666.05
759.74,1681.65
759.686,1662.85
759.632,1641.95
759.579,1663.3
759.525,1671.45
759.472,1670.5
759.418,1652.4
759.364,1686.3
759.311,1685.95
759.257,1670.45
759.204,1660.35
759.15,1683.3
759.096,1674.7
759.043,1676.75
758.989,1667.1
758.935,1664.65
758.882,1671.7
758.828,1645.9
758.775,1659.8
758.721,1665.2
758.667,1657.05
758.614,1665.5
758.56,1659.5
758.506,1670.9
758.453,1668.1
758.399,1665.25
758.345,1669.6
758.292,1681.45
758.238,1671.7
758.184,1676.6
758.131,1683
758.077,1645
758.023,1639.85
757.97,1691.1
757.916,1659.95
757.862,1656.8
757.809,1662.25
757.755,1664.25
757.701,1682.9
757.647,1673.1
757.594,1679.55
757.54,1672.2
757.486,1664.9
757.433,1673
757.379,1666.25
757.325,1665.85
757.271,1668.95
757.218,1667.15
757.164,1646.35
757.11,1666.9
757.056,1670.5
757.003,1658.5
756.949,1685.15
756.895,1657.2
756.842,1672.65
756.788,1652.95
756.734,1671.9
756.68,1662.2
756.626,1671.65
756.573,1672.55
756.519,1681.35
756.465,1664.45
756.411,1677.35
756.358,1659.7
756.304,1676.8
756.25,1666.85
756.196,1674.85
756.142,1658
756.089,1655.4
756.035,1668.5
755.981,1660.65
755.927,1667.55
755.873,1656
755.82,1664.55
755.766,1662.15
755.712,1675.05
755.658,1681.5
755.604,1667.8
755.551,1676.45
755.497,1668.9
755.443,1684.7
755.389,1664.6
755.335,1656.8
755.281,1683.5
755.228,1690.2
755.174,1627.1
755.12,1667.1
755.066,1664.4
755.012,1657.6
754.958,1654.9
754.904,1657.95
754.851,1657.5
754.797,1678
754.743,1680.9
754.689,1677.25
754.635,1679.6
754.581,1683.35
754.527,1688.45
754.473,1676.7
754.42,1673
754.366,1660.55
754.312,1684.2
754.258,1675.35
754.204,1678.7
754.15,1666.6
754.096,1663.95
754.042,1653.55
753.988,1671.75
753.934,1650.3
753.88,1671.4
753.827,1670.6
753.773,1678.75
753.719,1681.95
753.665,1672.65
753.611,1663.55
753.557,1655.35
753.503,1665.3
753.449,1651.7
753.395,1665.6
753.341,1656.6
753.287,1672.3
753.233,1661.9
753.179,1658.4
753.125,1667.45
753.071,1671.2
753.017,1682.25
752.963,1654.55
752.909,1665.05
752.855,1682.3
752.801,1677.75
752.747,1661.05
752.693,1684.1
752.639,1646.75
752.585,1655.35
752.531,1673.7
752.477,1647.1
752.423,1640.45
752.369,1654.1
752.315,1652.45
752.261,1659.6
752.207,1670.15
752.153,1663.7
752.099,1689.1
752.045,1684.05
751.991,1686.85
751.937,1675.55
751.883,1686.05
751.829,1682.05
751.775,1667.95
751.721,1657.8
751.667,1687.5
751.613,1666.5
751.559,1670.55
751.505,1668.75
751.451,1647.85
751.397,1663.95
751.343,1645.55
751.289,1667.25
751.235,1671.25
751.181,1690.6
751.126,1686.05
751.072,1681.4
751.018,1682.15
750.964,1677.75
750.91,1664
750.856,1672.3
750.802,1663.55
750.748,1675.9
750.694,1655.65
750.64,1660.2
750.585,1650.3
750.531,1659.15
750.477,1648
750.423,1653.2
750.369,1665.9
750.315,1651.05
750.261,1675.65
750.207,1650.1
750.152,1659.2
750.098,1679.1
750.044,1655.65
749.99,1689.5
749.936,1691.45
749.882,1676.35
749.828,1637.4
749.773,1655.7
749.719,1638.25
749.665,1655.55
749.611,1654.35
749.557,1652.85
749.503,1670.6
749.448,1647.45
749.394,1679.8
749.34,1677.65
749.286,1668.45
749.232,1664.5
749.178,1689
749.123,1682.25
749.069,1680.1
749.015,1688.75
748.961,1673.45
748.907,1679.35
748.852,1651.35
748.798,1689.15
748.744,1649.5
748.69,1646.4
748.635,1653.4
748.581,1652.9
748.527,1651.45
748.473,1666.75
748.419,1658.25
748.364,1670.65
748.31,1658.05
748.256,1687
748.202,1677.95
748.147,1675.45
748.093,1698.05
748.039,1687.8
747.985,1681.6
747.93,1673.6
747.876,1650.85
747.822,1678.25
747.767,1661.35
747.713,1670.95
747.659,1660.4
747.605,1653.15
747.55,1648.95
747.496,1659.15
747.442,1670.55
747.388,1680.45
747.333,1666.15
747.279,1671.25
747.225,1649.8
747.17,1693.5
747.116,1709.8
747.062,1693.9
747.007,1674.55
746.953,1678.2
746.899,1663.95
746.844,1646.55
746.79,1666.6
746.736,1636.6
746.681,1666.15
746.627,1662
746.573,1664.2
746.518,1672.1
746.464,1675.3
746.41,1670
746.355,1689.9
746.301,1685.95
746.247,1668.15
746.192,1681.45
746.138,1663.8
746.084,1672
746.029,1666.75
745.975,1660.4
745.92,1653.85
745.866,1681.75
745.812,1673
745.757,1654.2
745.703,1673.95
745.649,1677.5
745.594,1674.45
745.54,1682.7
745.485,1661.6
745.431,1670.45
745.377,1668.2
745.322,1659.2
745.268,1656.95
745.213,1674.8
745.159,1681.45
745.104,1670.55
745.05,1685.35
744.996,1660.55
744.941,1663.2
744.887,1673.3
744.832,1682.6
744.778,1685.15
744.723,1687.5
744.669,1673.35
744.615,1657.6
744.56,1661.8
744.506,1659.75
744.451,1659.95
744.397,1650.8
744.342,1672.5
744.288,1643.75
744.233,1648.45
744.179,1665.9
744.124,1677.15
744.07,1637.6
744.015,1664.6
743.961,1655.5
743.906,1679.2
743.852,1671.75
743.797,1700.4
743.743,1692.05
743.688,1671.5
743.634,1666
743.579,1673.8
743.525,1674.8
743.47,1677.3
743.416,1653.65
743.361,1656.85
743.307,1659.25
743.252,1651.55
743.198,1675.55
743.143,1682.15
743.089,1651.7
743.034,1657.05
742.98,1651.45
742.925,1660.75
742.87,1651.9
742.816,1676.6
742.761,1678.8
742.707,1666.35
742.652,1670.45
742.598,1682.95
742.543,1666.05
742.489,1669.9
742.434,1663.45
742.379,1678.6
742.325,1654.3
742.27,1641.25
742.216,1665.1
742.161,1650.4
742.106,1670
742.052,1675.4
741.997,1675.8
741.943,1686.55
741.888,1682.4
741.833,1681.75
741.779,1672.9
741.724,1687.05
741.67,1685.45
741.615,1660.3
741.56,1674.15
741.506,1686.65
741.451,1670.55
741.397,1653.15
741.342,1667
741.287,1664.55
741.233,1636.55
741.178,1656.7
741.123,1661.05
741.069,1654.75
741.014,1662.1
740.959,1674.4
740.905,1679.45
740.85,1679.65
740.795,1684.2
740.741,1686.7
740.686,1675.1
740.631,1659.05
740.577,1684.55
740.522,1684.95
740.467,1682.3
740.413,1672.45
740.358,1662.15
740.303,1666.6
740.249,1675.1
740.194,1672.6
740.139,1679.7
740.084,1663
740.03,1661.05
739.975,1661.85
739.92,1661.95
739.866,1672.8
739.811,1685.25
739.756,1652.6
739.701,1664.75
739.647,1676.25
739.592,1677.25
739.537,1679.6
739.482,1664.9
739.428,1666.15
739.373,1675.05
739.318,1665.1
739.263,1664.4
739.209,1693
739.154,1669.55
739.099,1680.3
739.044,1655.05
738.99,1678.3
738.935,1669.9
738.88,1669.55
738.825,1662.1
738.771,1664.45
738.716,1650.05
738.661,1652.05
738.606,1635.1
738.551,1649.6
738.497,1647.45
738.442,1655.15
738.387,1668.05
738.332,1669.05
738.277,1678.25
738.223,1678.25
738.168,1679.25
738.113,1672.15
738.058,1660.05
738.003,1667.65
737.949,1680.15
737.894,1673.05
737.839,1658.4
737.784,1685.05
737.729,1658.45
737.674,1668.65
737.619,1663.35
737.565,1654.25
737.51,1662.9
737.455,1653.25
737.4,1659.95
737.345,1686.8
737.29,1659.1
737.236,1670.75
737.181,1665.7
737.126,1674.9
737.071,1669.45
737.016,1670.1
736.961,1666.85
736.906,1676.8
736.851,1664.15
736.796,1653.5
736.742,1683.45
736.687,1651.55
736.632,1662.5
736.577,1663.4
736.522,1670
736.467,1667.05
736.412,1653.45
736.357,1675.35
736.302,1666.15
736.247,1664.35
736.192,1680
736.138,1666.25
736.083,1668.6
736.028,1669.7
735.973,1675.15
735.918,1679.9
735.863,1656.4
735.808,1645.5
735.753,1651.5
735.698,1667.5
735.643,1663.8
735.588,1649.95
735.533,1664.85
735.478,1664.35
735.423,1664.7
735.368,1675.35
735.313,1664.05
735.258,1669.25
735.203,1685.9
735.148,1684.4
735.093,1676.3
735.038,1682.6
734.983,1665.8
734.928,1667.8
734.873,1649.9
734.818,1653.45
734.763,1662.2
734.708,1679.55
734.653,1652.35
734.598,1665.25
734.543,1660.05
734.488,1672.85
734.433,1688.1
734.378,1684.55
734.323,1677.05
734.268,1653.3
734.213,1666.7
734.158,1662.85
734.103,1675.25
734.048,1668.3
733.993,1675.25
733.938,1692.35
733.883,1665.3
733.828,1658.5
733.773,1673.85
733.718,1650.7
733.663,1654.65
733.608,1671.2
733.553,1665.2
733.497,1663
733.442,1679.5
733.387,1670.05
733.332,1667.4
733.277,1680.7
733.222,1657.75
733.167,1657.9
733.112,1662.8
733.057,1685.1
733.002,1691
732.947,1667.05
732.891,1666.8
732.836,1668.9
732.781,1692.75
732.726,1669.7
732.671,1660.7
732.616,1666.95
732.561,1663.8
732.506,1656.65
732.45,1667.15
732.395,1677.45
732.34,1686.1
732.285,1671.6
732.23,1678.3
732.175,1653.2
732.12,1672.4
732.064,1690.7
732.009,1674.2
731.954,1664.1
731.899,1652.6
731.844,1650.8
731.789,1648.15
731.733,1669.95
731.678,1667.35
731.623,1672
731.568,1681.5
731.513,1680.2
731.458,1670.45
731.402,1675.9
731.347,1685.45
731.292,1671.75
731.237,1692.4
731.182,1679.75
731.126,1651.5
731.071,1656.9
731.016,1665.25
730.961,1672.35
730.906,1682.55
730.85,1687.55
730.795,1680.05
730.74,1672.15
730.685,1672.2
730.629,1664.35
730.574,1656.4
730.519,1690.9
730.464,1668.95
730.408,1663.95
730.353,1667.3
730.298,1644.5
730.243,1679.7
730.187,1670.45
730.132,1646.35
730.077,1657.5
730.022,1656.65
729.966,1668.45
729.911,1681.2
729.856,1659.45
729.801,1673.05
729.745,1678.7
729.69,1690.8
729.635,1685.85
729.579,1671.75
729.524,1664
729.469,1666.55
729.413,1664.45
729.358,1653.9
729.303,1691.8
729.248,1663.3
729.192,1686.15
729.137,1661.65
729.082,1668.5
729.026,1676.1
728.971,1687.25
728.916,1661.2
728.86,1664.75
728.805,1651.25
728.75,1663.4
728.694,1670
728.639,1689.5
728.584,1676.25
728.528,1665.2
728.473,1663.25
728.418,1659.45
728.362,1673.2
728.307,1663.5
728.251,1667.1
728.196,1677.6
728.141,1662.9
728.085,1658.75
728.03,1672.95
727.975,1655.85
727.919,1671.6
727.864,1670.95
727.808,1662.5
727.753,1663.7
727.698,1687.05
727.642,1675.95
727.587,1676.6
727.531,1681.4
727.476,1662.05
727.421,1653.25
727.365,1638.95
727.31,1651.85
727.254,1656.6
727.199,1669.55
727.144,1667.9
727.088,1670.3
727.033,1671.3
726.977,1665.05
726.922,1666.5
726.866,1695.9
726.811,1667.35
726.755,1676.05
726.7,1667.75
726.645,1675.45
726.589,1684.5
726.534,1648.15
726.478,1647
726.423,1673.7
726.367,1657.55
726.312,1674.8
726.256,1651.3
726.201,1666
726.145,1656.75
726.09,1674.85
726.034,1692.75
725.979,1655.75
725.923,1668.25
725.868,1692.15
725.812,1681.1
725.757,1689
725.701,1661.75
725.646,1676
725.59,1648.25
725.535,1681.9
725.479,1654.55
725.424,1663.35
725.368,1654.65
725.313,1667.65
725.257,1659.55
725.202,1676.95
725.146,1652.2
725.091,1662.35
725.035,1669.45
724.98,1669.7
724.924,1649.45
724.868,1685.1
724.813,1674.85
724.757,1671.35
724.702,1665.15
724.646,1667.95
724.591,1674.6
724.535,1688.75
724.48,1648.85
724.424,1675.15
724.368,1643.95
724.313,1671.35
724.257,1657.9
724.202,1651.25
724.146,1652.75
724.09,1662.65
724.035,1671.95
723.979,1656.75
723.924,1679
723.868,1674.95
723.812,1677.75
723.757,1664.9
723.701,1672.15
723.646,1666.7
723.59,1666.8
723.534,1655.05
723.479,1646.4
723.423,1657.8
723.367,1650.55
723.312,1659.7
723.256,1656.5
723.201,1641.35
723.145,1669.55
723.089,1652.2
723.034,1662.2
722.978,1666.6
722.922,1665.35
722.867,1681.35
722.811,1658.7
722.755,1676.2
722.7,1665.5
722.644,1671.55
722.588,1683.85
722.533,1667.25
722.477,1674.1
722.421,1665.05
722.366,1655.7
722.31,1650.2
722.254,1668.5
722.198,1655.35
722.143,1670.7
722.087,1663.5
722.031,1671.2
721.976,1673.75
721.92,1689.6
721.864,1678.2
721.808,1690.7
721.753,1643.4
721.697,1643.8
721.641,1667
721.586,1665.05
721.53,1662.85
721.474,1669.9
721.418,1678.45
721.363,1672.6
721.307,1666
721.251,1641.65
721.195,1674.35
721.14,1670.5
721.084,1669.4
721.028,1655.55
720.972,1678.25
720.917,1673.2
720.861,1659.15
720.805,1671.1
720.749,1672.1
720.693,1666.3
720.638,1672
720.582,1673.4
720.526,1659.45
720.47,1659.75
720.415,1669.4
720.359,1659.2
720.303,1690.15
720.247,1669.95
720.191,1673.75
720.135,1680.2
720.08,1657.55
720.024,1677.4
719.968,1679.65
719.912,1672.4
719.856,1677.7
719.801,1648.1
719.745,1668.1
719.689,1677.05
719.633,1673.9
719.577,1692.6
719.521,1661.95
719.466,1658.2
719.41,1656.1
719.354,1666.95
719.298,1657.75
719.242,1653.4
719.186,1674.7
719.13,1656.05
719.075,1665.85
719.019,1679.25
718.963,1661.9
718.907,1646.55
718.851,1644
718.795,1661.25
718.739,1650.95
718.683,1654.6
718.627,1665.6
718.572,1663.95
718.516,1667.35
718.46,1663.55
718.404,1666.05
718.348,1673.1
718.292,1683.9
718.236,1662.9
718.18,1659.35
718.124,1661.4
718.068,1669.65
718.012,1675.6
717.957,1667.5
717.901,1658.95
717.845,1666.85
717.789,1655.55
717.733,1671.75
717.677,1671.3
717.621,1669.75
717.565,1676.65
717.509,1671.95
717.453,1645.25
717.397,1653.85
717.341,1647.35
717.285,1671.4
717.229,1656.75
717.173,1667.4
717.117,1662.9
717.061,1671.15
717.005,1672.65
716.949,1672.85
716.893,1656.5
716.837,1673.85
716.781,1678.65
716.725,1667.65
716.669,1661
716.613,1678.25
716.557,1647.6
716.501,1681.05
716.445,1656.35
716.389,1669.3
716.333,1664
716.277,1663.2
716.221,1665.35
716.165,1665.45
716.109,1654.05
716.053,1668.85
715.997,1649.4
715.941,1642.1
715.885,1649.25
715.829,1668.2
715.773,1655.2
715.717,1685.15
715.661,1664.3
715.605,1667.25
715.549,1670.05
715.493,1680.75
715.437,1671.65
715.381,1690.7
715.325,1664.05
715.268,1672.7
715.212,1657.7
715.156,1679.95
715.1,1660.9
715.044,1667.35
714.988,1668
714.932,1669.15
714.876,1671.05
714.82,1672
714.764,1664.85
714.708,1656.9
714.651,1690.25
714.595,1676.25
714.539,1668.05
714.483,1686.8
714.427,1663.4
714.371,1675.45
714.315,1671.9
714.259,1657.3
714.202,1677
714.146,1671.65
714.09,1664.4
714.034,1678.7
713.978,1689.5
713.922,1686.55
713.866,1651.65
713.809,1667.15
713.753,1693.75
713.697,1670.05
713.641,1658.65
713.585,1660.2
713.529,1680.5
713.473,1676.8
713.416,1659.1
713.36,1652.85
713.304,1639.85
713.248,1659.6
713.192,1639.3
713.135,1639.95
713.079,1648.5
713.023,1663.7
712.967,1666.35
712.911,1676.55
712.854,1661
712.798,1681.2
712.742,1680.75
712.686,1674.1
712.63,1671.15
712.573,1679.15
712.517,1667.45
712.461,1656.45
712.405,1674
712.348,1651.55
712.292,1642.35
712.236,1649.75
712.18,1671.75
712.124,1634.3
712.067,1666.7
712.011,1676.6
711.955,1671.9
711.899,1661.4
711.842,1673.95
711.786,1672.95
711.73,1666.45
711.673,1681.4
711.617,1653.8
711.561,1652.75
711.505,1659.6
711.448,1666.2
711.392,1670.8
711.336,1646.55
711.28,1659.15
711.223,1657.5
711.167,1669.4
711.111,1650.3
711.054,1669.55
710.998,1669.15
710.942,1661.1
710.885,1681.25
710.829,1677.75
710.773,1675.5
710.716,1651.9
710.66,1652.35
710.604,1681.4
710.547,1690.85
710.491,1657.6
710.435,1660.2
710.378,1681.45
710.322,1637.05
710.266,1635.05
710.209,1646.25
710.153,1657.45
710.097,1634.05
710.04,1658.15
709.984,1657.7
709.928,1679.65
709.871,1677.15
709.815,1681.35
709.759,1673.95
709.702,1686.35
709.646,1686.65
709.589,1674.3
709.533,1689.85
709.477,1664.1
709.42,1664.05
709.364,1661.25
709.308,1653.45
709.251,1667.9
709.195,1657.25
709.138,1673.2
709.082,1652.6
709.026,1662.75
708.969,1657.9
708.913,1670.55
708.856,1657.65
708.8,1680.6
708.743,1677.85
708.687,1677.3
708.631,1663.8
708.574,1680.85
708.518,1667.85
708.461,1664.95
708.405,1661.6
708.348,1669.85
708.292,1660.45
708.235,1671.7
708.179,1661.75
708.123,1653.95
708.066,1657.5
708.01,1652.4
707.953,1674.45
707.897,1677.9
707.84,1670.65
707.784,1672.3
707.727,1686.55
707.671,1675.75
707.614,1669
707.558,1689.1
707.501,1712.3
707.445,1683
707.388,1652.85
707.332,1639.95
707.275,1665.9
707.219,1637.1
707.162,1653.4
707.106,1640.75
707.049,1675.35
706.993,1665.4
706.936,1683.9
706.88,1668.95
706.823,1674.4
706.767,1684.3
706.71,1677.55
706.654,1690.1
706.597,1671
706.541,1691.9
706.484,1672.95
706.427,1651.65
706.371,1658.55
706.314,1660.45
706.258,1657.1
706.201,1655.25
706.145,1663.95
706.088,1641.9
706.032,1661.8
705.975,1676.55
705.918,1664.2
705.862,1667.85
705.805,1688.95
705.749,1661.5
705.692,1683
705.635,1661.2
705.579,1673.45
705.522,1666.7
705.466,1687.2
705.409,1667
705.352,1662.1
705.296,1655.3
705.239,1673.5
705.183,1647.3
705.126,1665
705.069,1661.25
705.013,1647.45
704.956,1663.45
704.9,1665.8
704.843,1670.1
704.786,1670.85
704.73,1669.6
704.673,1676.7
704.616,1698.7
704.56,1634.5
704.503,1670.95
704.446,1667.2
704.39,1663.45
704.333,1661.35
704.276,1670.75
704.22,1676.1
704.163,1654.45
704.106,1665.15
704.05,1680.35
703.993,1655.2
703.936,1673.2
703.88,1672.6
703.823,1663.5
703.766,1683.65
703.71,1675
703.653,1670.35
703.596,1670.15
703.54,1678.7
703.483,1665.2
703.426,1681.15
703.369,1661.45
703.313,1676.25
703.256,1672.5
703.199,1668.3
703.143,1668.55
703.086,1648.65
703.029,1679.15
702.972,1669.85
702.916,1689.2
702.859,1663.15
702.802,1673.75
702.745,1676.75
702.689,1662.9
702.632,1665
702.575,1676.4
702.518,1673
702.462,1664.2
702.405,1675.55
702.348,1631.7
702.291,1664.1
702.235,1655.55
702.178,1655.45
702.121,1670.7
702.064,1686.65
702.007,1674.05
701.951,1692.8
701.894,1664.2
701.837,1658.85
701.78,1682.3
701.723,1697
701.667,1660.1
701.61,1630.45
701.553,1652.45
701.496,1639.75
701.439,1660.2
701.383,1660
701.326,1676.3
701.269,1667.75
701.212,1663.6
701.155,1670.15
701.099,1656.9
701.042,1660
700.985,1684.05
700.928,1671.85
700.871,1662.2
700.814,1684.9
700.757,1662.35
700.701,1664.55
700.644,1676.4
700.587,1663.8
700.53,1656.5
700.473,1666.85
700.416,1658.55
700.359,1675.95
700.303,1654.5
700.246,1674.1
700.189,1657.6
700.132,1659.1
700.075,1666.35
700.018,1661.7
699.961,1662.2
699.904,1682.05
699.847,1652.9
699.791,1685.75
699.734,1665.35
699.677,1665.65
699.62,1679.7
699.563,1671.2
699.506,1673.4
699.449,1667.45
699.392,1671.95
699.335,1662.4
699.278,1675.7
699.221,1681.45
699.164,1660.9
699.108,1669.7
699.051,1670.6
698.994,1659.25
698.937,1669.9
698.88,1675.4
698.823,1703.55
698.766,1682.95
698.709,1676.45
698.652,1679.45
698.595,1669.65
698.538,1666.05
698.481,1652.3
698.424,1686.2
698.367,1659.35
698.31,1647.7
698.253,1658.05
698.196,1683.1
698.139,1656.3
698.082,1654.7
698.025,1666.05
697.968,1679.1
697.911,1646.5
697.854,1653.55
697.797,1678.4
697.74,1669.4
697.683,1654.05
697.626,1673.1
697.569,1660
697.512,1668.5
697.455,1670.2
697.398,1667.5
697.341,1670.55
697.284,1672.3
697.227,1678.4
697.17,1666.7
697.113,1670.25
697.056,1671.15
696.999,1659.15
696.942,1677.55
696.885,1663.65
696.828,1650.2
696.771,1664.15
696.714,1682.35
696.657,1672.15
696.599,1671.9
696.542,1667.15
696.485,1674.85
696.428,1668.75
696.371,1675.15
696.314,1666.1
696.257,1651.4
696.2,1666.4
696.143,1665.05
696.086,1646.9
696.029,1658.55
695.971,1661.05
695.914,1705.65
695.857,1720.2
695.8,1672.95
695.743,1673.6
695.686,1669.95
695.629,1673.4
695.572,1679.95
695.515,1678.05
695.457,1667.25
695.4,1658.25
695.343,1667.8
695.286,1666.85
695.229,1688.95
695.172,1665.45
695.115,1665.3
695.057,1641.4
695,1668.1
694.943,1678.9
694.886,1693.85
694.829,1677.3
694.772,1692.4
694.715,1689.3
694.657,1676.75
694.6,1669.75
694.543,1665.7
694.486,1667.05
694.429,1673.4
694.371,1687
694.314,1665.6
694.257,1676.25
694.2,1659.25
694.143,1679.55
694.086,1664.45
694.028,1668.05
693.971,1676.9
693.914,1668
693.857,1659.05
693.799,1688.2
693.742,1662.1
693.685,1669.6
693.628,1681.05
693.571,1653.75
693.513,1696.95
693.456,1664.3
693.399,1693.85
693.342,1659.2
693.284,1653.55
693.227,1670.6
693.17,1686.8
693.113,1666.65
693.055,1661.5
692.998,1707.05
692.941,1695.45
692.884,1659.35
692.826,1668.1
692.769,1653.9
692.712,1669
692.655,1668.35
692.597,1649.4
692.54,1674.1
692.483,1659.75
692.425,1678.6
692.368,1672.1
692.311,1684.2
692.254,1685.6
